SpectraSuite Data File
++++++++++++++++++++++++++++++++++++
Date: Mon May 06 13:54:18 CDT 2013
User: Students
Dark Spectrum Present: Yes
Reference Spectrum Present: Yes
Number of Sampled Component Spectra: 1
Spectrometers: USB4H00887
Integration Time (usec): 100000 (USB4H00887)
Spectra Averaged: 10 (USB4H00887)
Boxcar Smoothing: 5 (USB4H00887)
Correct for Electrical Dark: No (USB4H00887)
Strobe/Lamp Enabled: No (USB4H00887)
Correct for Detector Non-linearity: No (USB4H00887)
Correct for Stray Light: No (USB4H00887)
Number of Pixels in Processed Spectrum: 3648
>>>>>Begin Processed Spectral Data<<<<<
345.83	-13.72
346.05	-13.72
346.26	-13.72
346.48	11.88
346.70	4.92
346.92	-7.78
347.14	-7.45
347.35	-5.64
347.57	-7.86
347.79	-9.94
348.01	-8.84
348.23	-4.64
348.44	-5.01
348.66	-5.16
348.88	-2.70
349.10	-2.14
349.32	1.86
349.53	3.35
349.75	3.84
349.97	10.61
350.19	13.50
350.41	12.68
350.62	10.97
350.84	12.05
351.06	9.96
351.28	9.68
351.50	10.87
351.71	11.02
351.93	10.91
352.15	12.06
352.37	7.82
352.58	6.67
352.80	7.63
353.02	9.42
353.24	10.50
353.46	12.03
353.67	8.25
353.89	8.40
354.11	4.93
354.33	4.65
354.54	1.90
354.76	4.11
354.98	3.93
355.20	2.36
355.41	0.37
355.63	1.14
355.85	-0.07
356.07	-0.02
356.28	-4.95
356.50	-1.99
356.72	-3.05
356.94	2.23
357.15	1.60
357.37	0.86
357.59	3.33
357.81	4.04
358.02	1.60
358.24	5.66
358.46	8.71
358.68	10.54
358.89	10.11
359.11	11.04
359.33	8.43
359.55	6.68
359.76	6.09
359.98	3.63
360.20	3.57
360.42	6.05
360.63	2.59
360.85	0.76
361.07	3.54
361.29	2.68
361.50	2.29
361.72	-0.86
361.94	0.89
362.15	1.73
362.37	3.48
362.59	3.69
362.81	1.06
363.02	3.52
363.24	4.28
363.46	4.10
363.68	2.72
363.89	3.54
364.11	5.32
364.33	4.71
364.54	2.46
364.76	1.66
364.98	2.25
365.20	1.32
365.41	-1.69
365.63	0.07
365.85	-0.99
366.06	2.59
366.28	2.40
366.50	1.68
366.71	1.75
366.93	4.30
367.15	6.53
367.37	7.76
367.58	12.23
367.80	14.50
368.02	14.88
368.23	15.84
368.45	12.72
368.67	14.26
368.88	14.30
369.10	14.91
369.32	16.27
369.53	11.02
369.75	11.65
369.97	8.38
370.19	8.14
370.40	8.43
370.62	8.82
370.84	10.35
371.05	9.68
371.27	9.35
371.49	8.94
371.70	8.84
371.92	10.98
372.14	7.86
372.35	10.18
372.57	12.62
372.79	12.64
373.00	13.50
373.22	14.15
373.44	14.34
373.65	13.80
373.87	13.11
374.09	9.09
374.30	8.51
374.52	11.82
374.74	10.57
374.95	6.35
375.17	5.62
375.39	3.78
375.60	-1.73
375.82	-5.46
376.04	-4.26
376.25	-4.93
376.47	-0.97
376.68	-3.02
376.90	-4.90
377.12	-4.17
377.33	-3.85
377.55	-5.77
377.77	-6.39
377.98	-3.76
378.20	-1.12
378.42	-0.48
378.63	1.71
378.85	1.90
379.07	4.21
379.28	-0.52
379.50	-1.47
379.71	0.65
379.93	0.84
380.15	2.53
380.36	4.80
380.58	3.59
380.80	5.05
381.01	2.23
381.23	1.77
381.44	4.00
381.66	7.71
381.88	5.32
382.09	5.66
382.31	4.64
382.53	3.97
382.74	5.10
382.96	6.70
383.17	2.72
383.39	1.45
383.61	4.47
383.82	-0.07
384.04	-0.67
384.25	4.04
384.47	1.04
384.69	0.76
384.90	-0.17
385.12	-1.12
385.33	-2.76
385.55	0.07
385.77	3.13
385.98	-1.51
386.20	0.50
386.41	0.34
386.63	0.88
386.85	2.22
387.06	1.62
387.28	1.12
387.49	0.43
387.71	0.91
387.93	-2.35
388.14	-0.60
388.36	-2.31
388.57	-1.21
388.79	-0.28
389.01	-2.35
389.22	-3.31
389.44	-1.02
389.65	-1.95
389.87	0.67
390.08	2.14
390.30	4.26
390.52	1.01
390.73	4.02
390.95	3.24
391.16	2.44
391.38	1.10
391.59	2.23
391.81	2.35
392.03	4.45
392.24	-0.74
392.46	-0.99
392.67	-0.39
392.89	2.46
393.10	1.68
393.32	1.25
393.53	2.61
393.75	1.04
393.97	1.49
394.18	-1.30
394.40	-1.28
394.61	1.79
394.83	0.58
395.04	-0.07
395.26	-0.45
395.47	-1.15
395.69	0.32
395.91	-0.22
396.12	2.35
396.34	3.31
396.55	4.06
396.77	4.54
396.98	5.16
397.20	5.86
397.41	5.68
397.63	4.15
397.84	3.43
398.06	2.59
398.27	5.25
398.49	5.19
398.71	4.97
398.92	7.80
399.14	7.91
399.35	5.36
399.57	3.44
399.78	3.00
400.00	3.84
400.21	0.95
400.43	0.99
400.64	-2.40
400.86	-1.69
401.07	-0.71
401.29	-3.03
401.50	-5.83
401.72	-7.21
401.93	-3.65
402.15	-3.13
402.36	-3.89
402.58	2.81
402.79	1.68
403.01	1.66
403.22	0.58
403.44	-3.37
403.65	-2.29
403.87	2.23
404.08	7.37
404.30	6.27
404.51	8.25
404.73	7.39
404.94	4.32
405.16	6.35
405.37	8.10
405.59	9.44
405.80	8.47
406.02	8.40
406.23	7.39
406.45	2.16
406.66	2.57
406.88	-1.14
407.09	-0.06
407.31	3.43
407.52	0.41
407.74	1.82
407.95	0.45
408.17	4.52
408.38	3.95
408.60	2.87
408.81	5.72
409.03	3.82
409.24	3.91
409.45	6.18
409.67	3.63
409.88	7.02
410.10	2.49
410.31	3.91
410.53	1.06
410.74	-0.06
410.96	-3.54
411.17	-4.21
411.39	-5.05
411.60	-1.53
411.82	-2.40
412.03	-1.45
412.24	-3.17
412.46	-1.60
412.67	-3.52
412.89	-3.48
413.10	-1.12
413.32	1.47
413.53	0.04
413.75	0.60
413.96	-2.94
414.17	-1.36
414.39	-2.74
414.60	-0.65
414.82	-3.03
415.03	-3.46
415.25	0.76
415.46	0.89
415.68	2.49
415.89	7.52
416.10	7.35
416.32	8.92
416.53	8.06
416.75	7.75
416.96	5.32
417.18	6.91
417.39	9.50
417.60	8.49
417.82	5.98
418.03	4.92
418.25	4.52
418.46	8.40
418.67	8.68
418.89	9.59
419.10	11.13
419.32	10.43
419.53	9.44
419.75	7.61
419.96	3.41
420.17	4.08
420.39	3.91
420.60	1.49
420.82	-1.88
421.03	-3.20
421.24	-8.84
421.46	-11.43
421.67	-10.02
421.89	-6.81
422.10	-8.28
422.31	-5.99
422.53	-5.03
422.74	-2.81
422.96	-1.82
423.17	-1.58
423.38	-0.22
423.60	2.31
423.81	4.08
424.03	6.20
424.24	6.16
424.45	5.38
424.67	5.79
424.88	3.97
425.09	3.91
425.31	-0.71
425.52	-2.18
425.74	-3.46
425.95	-2.35
426.16	-2.74
426.38	-5.88
426.59	-7.22
426.80	-5.10
427.02	-5.86
427.23	-4.00
427.45	-3.26
427.66	1.10
427.87	2.61
428.09	2.27
428.30	2.10
428.51	4.82
428.73	4.23
428.94	2.57
429.15	1.12
429.37	1.53
429.58	2.33
429.79	-1.56
430.01	-4.51
430.22	-5.47
430.44	-4.90
430.65	-4.11
430.86	-6.48
431.08	-6.85
431.29	-5.46
431.50	-4.34
431.72	-5.49
431.93	-4.77
432.14	-1.14
432.36	1.55
432.57	3.82
432.78	4.32
433.00	0.00
433.21	1.92
433.42	3.97
433.64	6.03
433.85	6.68
434.06	9.53
434.28	7.50
434.49	6.65
434.70	6.14
434.92	5.96
435.13	7.60
435.34	9.74
435.56	7.26
435.77	6.94
435.98	6.93
436.20	7.45
436.41	5.83
436.62	5.14
436.83	4.47
437.05	2.66
437.26	3.48
437.47	2.09
437.69	3.57
437.90	5.03
438.11	7.13
438.33	4.34
438.54	3.52
438.75	2.96
438.97	3.95
439.18	4.51
439.39	5.64
439.60	3.69
439.82	4.56
440.03	3.13
440.24	3.35
440.46	2.35
440.67	1.94
440.88	3.09
441.10	2.68
441.31	2.48
441.52	0.71
441.73	0.09
441.95	3.76
442.16	2.01
442.37	-1.01
442.58	-1.95
442.80	-3.09
443.01	0.04
443.22	-2.38
443.44	-2.03
443.65	-3.69
443.86	-1.95
444.07	-1.12
444.29	-6.37
444.50	-6.22
444.71	-2.44
444.92	-5.23
445.14	-5.81
445.35	-7.88
445.56	-5.90
445.78	-6.63
445.99	-5.62
446.20	-5.83
446.41	-8.28
446.63	-5.18
446.84	-4.97
447.05	-4.23
447.26	-1.27
447.48	-0.11
447.69	0.58
447.90	-3.61
448.11	-2.23
448.33	-2.09
448.54	-4.28
448.75	-3.05
448.96	-3.46
449.18	-3.84
449.39	-2.38
449.60	-2.63
449.81	-1.86
450.03	-3.65
450.24	0.45
450.45	1.34
450.66	2.01
450.87	-0.43
451.09	0.28
451.30	-2.63
451.51	-2.14
451.72	-2.49
451.94	-4.80
452.15	-7.21
452.36	-5.53
452.57	-7.48
452.78	-9.18
453.00	-9.57
453.21	-5.85
453.42	-6.74
453.63	-3.56
453.85	-1.47
454.06	-1.73
454.27	-0.45
454.48	-0.56
454.69	-2.09
454.91	1.02
455.12	3.82
455.33	3.65
455.54	4.38
455.75	8.21
455.97	7.69
456.18	7.37
456.39	5.29
456.60	5.66
456.81	6.65
457.03	9.96
457.24	8.97
457.45	6.44
457.66	7.54
457.87	6.26
458.09	4.69
458.30	4.58
458.51	3.78
458.72	3.78
458.93	4.95
459.15	6.01
459.36	4.95
459.57	3.35
459.78	3.56
459.99	1.56
460.20	2.35
460.42	1.23
460.63	3.91
460.84	3.44
461.05	3.22
461.26	0.48
461.47	1.73
461.69	0.95
461.90	1.79
462.11	1.58
462.32	1.30
462.53	-1.51
462.74	0.26
462.96	-0.95
463.17	-0.48
463.38	-4.67
463.59	-3.57
463.80	-5.05
464.01	-6.42
464.23	-6.44
464.44	-6.09
464.65	-5.01
464.86	-2.35
465.07	-4.45
465.28	-2.85
465.49	-1.73
465.71	5.14
465.92	7.45
466.13	5.16
466.34	5.08
466.55	4.39
466.76	4.00
466.97	5.14
467.19	4.43
467.40	5.06
467.61	2.51
467.82	-0.11
468.03	0.37
468.24	-2.27
468.45	2.44
468.66	4.97
468.88	7.65
469.09	6.52
469.30	9.18
469.51	9.48
469.72	7.67
469.93	5.53
470.14	7.47
470.35	3.41
470.57	2.64
470.78	-0.26
470.99	0.02
471.20	-1.94
471.41	-4.45
471.62	-6.65
471.83	-6.91
472.04	-5.34
472.25	-2.18
472.47	-2.94
472.68	0.97
472.89	1.75
473.10	1.43
473.31	0.20
473.52	0.35
473.73	3.84
473.94	3.17
474.15	1.88
474.36	2.23
474.57	-0.45
474.79	-0.50
475.00	-2.23
475.21	-1.41
475.42	0.47
475.63	1.69
475.84	0.41
476.05	-0.02
476.26	0.34
476.47	2.68
476.68	1.02
476.89	4.11
477.10	6.57
477.32	8.40
477.53	7.34
477.74	4.62
477.95	2.20
478.16	3.07
478.37	4.73
478.58	3.85
478.79	3.26
479.00	5.59
479.21	1.79
479.42	-1.95
479.63	-6.03
479.84	-5.75
480.05	-3.65
480.26	-0.74
480.47	-0.80
480.69	-3.15
480.90	-3.98
481.11	-3.98
481.32	-3.17
481.53	-1.21
481.74	-0.06
481.95	2.61
482.16	3.17
482.37	1.92
482.58	0.58
482.79	-0.04
483.00	2.68
483.21	3.11
483.42	4.26
483.63	3.02
483.84	1.01
484.05	3.26
484.26	2.20
484.47	6.09
484.68	6.37
484.89	6.80
485.10	7.89
485.31	6.57
485.52	8.36
485.73	6.96
485.94	7.60
486.15	10.17
486.37	8.36
486.58	7.34
486.79	3.09
487.00	3.93
487.21	2.81
487.42	5.49
487.63	4.88
487.84	2.81
488.05	1.69
488.26	2.81
488.47	2.42
488.68	2.07
488.89	5.88
489.10	5.16
489.31	4.77
489.52	5.23
489.73	4.19
489.94	4.43
490.15	5.79
490.36	8.77
490.57	5.06
490.78	3.09
490.99	1.55
491.20	-0.86
491.41	-1.06
491.62	-3.57
491.83	-4.80
492.04	-6.44
492.25	-6.76
492.45	-6.67
492.66	-5.96
492.87	-5.75
493.08	-4.77
493.29	-3.39
493.50	-5.12
493.71	-3.69
493.92	0.61
494.13	2.68
494.34	1.06
494.55	2.36
494.76	1.69
494.97	-0.97
495.18	0.78
495.39	-1.34
495.60	-0.24
495.81	0.28
496.02	0.28
496.23	-4.36
496.44	-2.05
496.65	0.20
496.86	1.55
497.07	1.66
497.28	0.00
497.49	0.41
497.70	3.65
497.91	2.27
498.12	2.90
498.32	5.66
498.53	10.43
498.74	7.39
498.95	5.75
499.16	5.66
499.37	5.32
499.58	10.02
499.79	6.96
500.00	7.61
500.21	6.31
500.42	5.92
500.63	4.99
500.84	3.95
501.05	7.21
501.26	7.39
501.46	7.17
501.67	6.16
501.88	3.65
502.09	6.87
502.30	6.24
502.51	8.14
502.72	7.93
502.93	4.11
503.14	1.71
503.35	-0.91
503.56	0.41
503.77	0.65
503.97	3.48
504.18	3.84
504.39	4.82
504.60	3.61
504.81	6.40
505.02	6.39
505.23	5.19
505.44	8.08
505.65	4.84
505.86	4.34
506.07	2.63
506.27	4.00
506.48	4.17
506.69	2.07
506.90	4.51
507.11	2.77
507.32	3.80
507.53	9.01
507.74	8.53
507.95	12.21
508.15	13.81
508.36	12.42
508.57	10.04
508.78	10.39
508.99	12.38
509.20	9.79
509.41	7.56
509.62	9.09
509.82	6.42
510.03	2.42
510.24	0.80
510.45	0.17
510.66	1.27
510.87	2.01
511.08	0.54
511.29	-1.86
511.49	0.28
511.70	2.66
511.91	2.70
512.12	7.00
512.33	11.34
512.54	11.25
512.75	11.49
512.95	10.76
513.16	10.09
513.37	12.38
513.58	12.42
513.79	14.02
514.00	12.08
514.20	10.05
514.41	5.98
514.62	5.98
514.83	5.75
515.04	6.61
515.25	10.44
515.46	14.80
515.66	13.50
515.87	17.41
516.08	15.81
516.29	18.88
516.50	19.73
516.71	20.27
516.91	21.45
517.12	22.49
517.33	20.61
517.54	18.34
517.75	12.62
517.95	14.78
518.16	14.67
518.37	14.76
518.58	13.70
518.79	13.96
519.00	16.14
519.20	12.77
519.41	12.79
519.62	13.52
519.83	16.25
520.04	15.62
520.24	14.34
520.45	14.06
520.66	12.36
520.87	13.22
521.08	11.90
521.28	11.97
521.49	11.86
521.70	13.93
521.91	15.88
522.12	15.10
522.32	17.37
522.53	18.54
522.74	13.70
522.95	16.68
523.16	15.53
523.36	17.85
523.57	14.65
523.78	13.67
523.99	14.08
524.20	12.92
524.40	12.49
524.61	12.10
524.82	13.29
525.03	18.00
525.23	18.43
525.44	18.99
525.65	19.94
525.86	22.79
526.06	29.77
526.27	28.24
526.48	28.09
526.69	27.44
526.90	29.90
527.10	29.10
527.31	26.31
527.52	27.82
527.73	29.17
527.93	28.78
528.14	30.35
528.35	25.64
528.56	27.78
528.76	31.28
528.97	29.68
529.18	28.62
529.39	26.62
529.59	31.48
529.80	28.95
530.01	28.41
530.22	31.89
530.42	29.84
530.63	32.49
530.84	30.03
531.05	29.06
531.25	31.07
531.46	32.82
531.67	35.93
531.88	31.78
532.08	32.41
532.29	33.94
532.50	32.47
532.70	37.14
532.91	36.30
533.12	39.28
533.33	37.68
533.53	37.89
533.74	35.28
533.95	35.45
534.15	35.88
534.36	35.80
534.57	35.23
534.78	33.53
534.98	29.97
535.19	30.55
535.40	28.84
535.60	28.75
535.81	32.66
536.02	35.36
536.23	33.47
536.43	38.17
536.64	38.32
536.85	39.23
537.05	42.21
537.26	45.63
537.47	47.53
537.67	49.86
537.88	49.56
538.09	50.18
538.30	53.27
538.50	55.57
538.71	55.22
538.92	58.37
539.12	57.81
539.33	57.14
539.54	54.25
539.74	54.46
539.95	52.47
540.16	54.81
540.36	51.37
540.57	49.67
540.78	49.04
540.98	48.11
541.19	47.79
541.40	49.95
541.60	51.87
541.81	53.27
542.02	53.17
542.22	55.95
542.43	55.89
542.64	57.72
542.84	59.43
543.05	59.65
543.26	61.77
543.46	60.32
543.67	60.10
543.88	55.46
544.08	56.54
544.29	57.40
544.50	57.96
544.70	59.69
544.91	63.60
545.12	62.18
545.32	63.99
545.53	64.14
545.74	68.36
545.94	66.84
546.15	71.31
546.35	72.65
546.56	73.52
546.77	75.96
546.97	73.69
547.18	70.51
547.39	69.98
547.59	70.71
547.80	70.71
548.01	69.98
548.21	73.88
548.42	77.39
548.62	77.64
548.83	77.73
549.04	77.45
549.24	81.21
549.45	81.01
549.65	83.52
549.86	82.94
550.07	87.32
550.27	87.86
550.48	86.50
550.69	85.07
550.89	87.30
551.10	89.83
551.30	91.26
551.51	94.13
551.72	98.54
551.92	100.48
552.13	102.12
552.33	101.88
552.54	101.73
552.75	105.49
552.95	106.05
553.16	108.00
553.36	108.78
553.57	109.01
553.78	106.98
553.98	109.79
554.19	113.87
554.39	117.52
554.60	116.70
554.80	118.22
555.01	118.09
555.22	120.81
555.42	122.21
555.63	123.72
555.83	126.84
556.04	135.17
556.25	136.67
556.45	135.00
556.66	137.27
556.86	137.16
557.07	140.84
557.27	144.03
557.48	144.94
557.68	144.83
557.89	146.00
558.10	148.33
558.30	146.63
558.51	148.44
558.71	150.97
558.92	153.19
559.12	157.36
559.33	159.39
559.54	158.68
559.74	163.15
559.95	163.86
560.15	167.30
560.36	167.58
560.56	168.18
560.77	168.55
560.97	171.17
561.18	172.70
561.38	175.47
561.59	180.56
561.79	185.43
562.00	185.38
562.21	187.63
562.41	191.56
562.62	195.95
562.82	200.31
563.03	202.12
563.23	204.11
563.44	204.03
563.64	205.28
563.85	206.03
564.05	205.19
564.26	206.49
564.46	211.46
564.67	214.78
564.87	215.50
565.08	215.35
565.28	219.80
565.49	223.08
565.69	228.46
565.90	232.76
566.10	231.48
566.31	238.01
566.51	243.71
566.72	246.05
566.92	247.38
567.13	249.83
567.33	253.02
567.54	251.10
567.74	252.83
567.95	253.87
568.15	258.51
568.36	264.95
568.56	266.98
568.77	266.94
568.97	270.63
569.18	273.83
569.38	280.68
569.59	283.40
569.79	289.15
570.00	293.94
570.20	297.83
570.41	299.15
570.61	303.01
570.82	306.51
571.02	311.48
571.23	313.21
571.43	314.03
571.64	316.00
571.84	319.97
572.05	323.93
572.25	327.02
572.45	331.88
572.66	334.79
572.86	338.77
573.07	341.04
573.27	343.71
573.48	348.90
573.68	354.00
573.89	355.04
574.09	358.19
574.30	362.10
574.50	364.85
574.70	365.39
574.91	369.51
575.11	372.21
575.32	374.54
575.52	378.41
575.73	381.85
575.93	383.66
576.14	386.49
576.34	390.64
576.54	391.01
576.75	393.40
576.95	397.45
577.16	400.01
577.36	401.61
577.57	405.33
577.77	408.81
577.97	413.86
578.18	416.00
578.38	420.06
578.59	421.42
578.79	424.77
579.00	426.78
579.20	430.19
579.40	434.37
579.61	439.94
579.81	443.57
580.02	442.57
580.22	442.60
580.42	445.69
580.63	444.60
580.83	446.70
581.04	448.32
581.24	451.89
581.45	451.22
581.65	448.37
581.85	444.54
582.06	443.39
582.26	443.70
582.47	441.26
582.67	439.31
582.87	439.81
583.08	440.29
583.28	442.86
583.48	440.42
583.69	439.46
583.89	440.41
584.10	442.04
584.30	438.88
584.50	441.02
584.71	439.46
584.91	441.15
585.12	442.88
585.32	442.44
585.52	440.91
585.73	443.03
585.93	444.50
586.13	440.85
586.34	436.55
586.54	437.46
586.75	435.32
586.95	436.29
587.15	433.29
587.36	431.13
587.56	428.81
587.76	426.00
587.97	421.47
588.17	419.00
588.37	417.21
588.58	416.50
588.78	414.32
588.98	411.60
589.19	408.92
589.39	406.89
589.60	399.15
589.80	398.39
590.00	394.76
590.21	391.07
590.41	385.97
590.61	385.69
590.82	380.87
591.02	380.25
591.22	378.41
591.43	375.56
591.63	370.96
591.83	372.49
592.04	367.57
592.24	363.85
592.44	358.69
592.65	355.81
592.85	351.62
593.05	348.15
593.26	338.99
593.46	332.87
593.66	326.46
593.86	323.73
594.07	320.90
594.27	318.44
594.47	314.87
594.68	312.76
594.88	305.46
595.08	300.85
595.29	296.75
595.49	294.09
595.69	288.95
595.90	289.38
596.10	281.99
596.30	276.05
596.50	269.35
596.71	263.96
596.91	262.55
597.11	263.78
597.32	260.52
597.52	256.52
597.72	256.44
597.93	252.50
598.13	246.50
598.33	249.55
598.53	244.38
598.74	242.31
598.94	241.83
599.14	235.76
599.35	231.68
599.55	228.59
599.75	230.25
599.95	227.66
600.16	227.40
600.36	221.20
600.56	217.38
600.76	214.93
600.97	216.28
601.17	211.02
601.37	207.96
601.58	204.50
601.78	200.51
601.98	193.79
602.18	190.11
602.39	187.31
602.59	187.07
602.79	178.27
602.99	176.42
603.20	166.18
603.40	163.60
603.60	161.19
603.80	158.40
604.01	158.40
604.21	154.03
604.41	152.05
604.61	149.87
604.82	148.20
605.02	148.83
605.22	146.26
605.42	146.00
605.62	144.74
605.83	139.49
606.03	135.87
606.23	131.16
606.43	129.30
606.64	125.60
606.84	125.47
607.04	123.25
607.24	123.94
607.45	121.95
607.65	120.83
607.85	120.01
608.05	124.87
608.25	126.75
608.46	128.09
608.66	129.86
608.86	130.31
609.06	124.98
609.26	125.65
609.47	123.66
609.67	125.63
609.87	122.86
610.07	119.42
610.28	117.67
610.48	114.59
610.68	112.99
610.88	111.04
611.08	110.03
611.29	107.46
611.49	103.09
611.69	97.37
611.89	93.89
612.09	92.79
612.29	93.83
612.50	87.15
612.70	86.89
612.90	81.51
613.10	79.57
613.30	77.60
613.51	81.40
613.71	80.41
613.91	79.07
614.11	76.00
614.31	76.89
614.51	75.68
614.72	75.74
614.92	72.98
615.12	73.37
615.32	72.39
615.52	70.75
615.72	67.34
615.93	65.83
616.13	66.22
616.33	68.29
616.53	64.06
616.73	61.94
616.93	61.53
617.14	61.64
617.34	60.47
617.54	59.24
617.74	57.40
617.94	54.72
618.14	54.70
618.34	51.37
618.55	49.60
618.75	51.72
618.95	50.72
619.15	45.13
619.35	43.62
619.55	43.57
619.75	44.22
619.96	42.62
620.16	45.80
620.36	43.19
620.56	47.94
620.76	45.41
620.96	43.36
621.16	40.40
621.36	46.49
621.57	46.60
621.77	45.80
621.97	44.39
622.17	41.96
622.37	40.40
622.57	43.88
622.77	40.68
622.97	38.73
623.18	37.12
623.38	39.43
623.58	39.53
623.78	38.86
623.98	40.94
624.18	38.32
624.38	41.52
624.58	41.20
624.78	40.88
624.98	40.98
625.19	44.50
625.39	44.22
625.59	41.87
625.79	42.10
625.99	43.94
626.19	41.52
626.39	39.94
626.59	34.59
626.79	34.37
626.99	31.32
627.19	34.39
627.40	32.38
627.60	31.65
627.80	33.14
628.00	30.03
628.20	25.73
628.40	26.53
628.60	30.07
628.80	34.03
629.00	31.30
629.20	31.13
629.40	31.00
629.60	31.69
629.80	32.62
630.00	35.17
630.20	33.57
630.41	37.03
630.61	34.16
630.81	33.01
631.01	36.60
631.21	38.61
631.41	39.32
631.61	38.41
631.81	34.48
632.01	37.20
632.21	35.58
632.41	36.86
632.61	36.29
632.81	37.91
633.01	41.07
633.21	35.84
633.41	34.67
633.61	34.61
633.81	31.28
634.01	33.25
634.21	29.86
634.41	28.17
634.61	27.68
634.81	25.69
635.01	27.41
635.22	25.15
635.42	24.91
635.62	24.37
635.82	25.64
636.02	29.55
636.22	32.38
636.42	33.94
636.62	34.93
636.82	37.50
637.02	35.56
637.22	31.46
637.42	30.96
637.62	33.53
637.82	31.35
638.02	30.48
638.22	26.31
638.42	23.72
638.62	21.13
638.82	20.93
639.02	19.38
639.22	22.08
639.42	20.54
639.62	20.81
639.82	16.51
640.02	17.17
640.22	15.06
640.42	14.13
640.62	13.96
640.82	13.87
641.02	11.80
641.22	13.31
641.42	10.39
641.61	14.21
641.81	13.65
642.01	15.99
642.21	16.70
642.41	15.10
642.61	18.32
642.81	20.80
643.01	21.73
643.21	23.48
643.41	21.75
643.61	24.71
643.81	24.56
644.01	23.68
644.21	25.23
644.41	24.05
644.61	26.68
644.81	22.99
645.01	20.74
645.21	22.08
645.41	19.62
645.61	20.31
645.81	20.52
646.01	19.40
646.21	20.11
646.40	19.88
646.60	23.14
646.80	23.59
647.00	27.95
647.20	26.05
647.40	25.45
647.60	28.30
647.80	26.29
648.00	26.57
648.20	29.81
648.40	30.11
648.60	27.33
648.80	28.13
649.00	27.48
649.20	24.95
649.39	26.79
649.59	26.12
649.79	24.26
649.99	25.80
650.19	26.33
650.39	25.06
650.59	23.33
650.79	24.13
650.99	20.18
651.19	19.83
651.39	21.69
651.58	23.89
651.78	24.87
651.98	23.92
652.18	22.12
652.38	21.47
652.58	19.25
652.78	20.41
652.98	18.62
653.18	22.32
653.38	22.29
653.57	22.62
653.77	19.40
653.97	16.33
654.17	15.55
654.37	18.67
654.57	15.27
654.77	13.94
654.97	12.33
655.16	15.45
655.36	16.25
655.56	16.14
655.76	14.99
655.96	17.30
656.16	18.60
656.36	19.46
656.56	16.83
656.75	19.46
656.95	21.49
657.15	22.55
657.35	18.36
657.55	13.85
657.75	12.47
657.95	10.20
658.14	7.67
658.34	9.23
658.54	11.36
658.74	10.48
658.94	8.96
659.14	7.07
659.34	8.88
659.53	11.80
659.73	12.73
659.93	14.95
660.13	16.89
660.33	18.38
660.53	17.97
660.72	14.06
660.92	16.10
661.12	15.49
661.32	19.53
661.52	17.31
661.72	15.77
661.91	16.89
662.11	16.85
662.31	15.38
662.51	15.42
662.71	15.25
662.90	17.84
663.10	18.06
663.30	18.67
663.50	16.50
663.70	16.98
663.90	19.51
664.09	20.89
664.29	20.76
664.49	24.50
664.69	24.61
664.89	21.60
665.08	21.80
665.28	20.26
665.48	21.09
665.68	22.66
665.88	23.89
666.07	21.02
666.27	16.46
666.47	15.88
666.67	12.38
666.87	13.91
667.06	16.63
667.26	16.35
667.46	13.27
667.66	12.83
667.85	10.56
668.05	11.04
668.25	13.39
668.45	13.74
668.65	15.60
668.84	20.07
669.04	18.97
669.24	20.72
669.44	19.44
669.63	23.98
669.83	25.62
670.03	24.37
670.23	20.85
670.42	22.30
670.62	24.58
670.82	23.01
671.02	18.62
671.22	16.94
671.41	15.47
671.61	16.85
671.81	14.91
672.01	14.95
672.20	13.35
672.40	14.39
672.60	12.38
672.80	13.68
672.99	17.24
673.19	20.72
673.39	21.06
673.58	21.43
673.78	21.75
673.98	20.98
674.18	19.81
674.37	23.14
674.57	24.35
674.77	24.31
674.97	19.94
675.16	14.69
675.36	9.48
675.56	8.17
675.75	4.78
675.95	3.87
676.15	6.11
676.35	6.80
676.54	6.91
676.74	5.59
676.94	4.00
677.13	8.30
677.33	7.67
677.53	10.72
677.73	14.45
677.92	17.02
678.12	18.99
678.32	17.91
678.51	16.64
678.71	19.42
678.91	23.44
679.11	24.20
679.30	23.46
679.50	25.79
679.70	26.62
679.89	24.26
680.09	23.50
680.29	22.90
680.48	23.33
680.68	23.44
680.88	20.03
681.07	17.20
681.27	17.52
681.47	16.76
681.66	16.66
681.86	15.97
682.06	15.36
682.25	16.55
682.45	15.01
682.65	19.25
682.84	19.06
683.04	18.60
683.24	19.87
683.43	23.37
683.63	21.26
683.83	21.11
684.02	20.48
684.22	20.67
684.42	19.96
684.61	18.06
684.81	14.45
685.01	11.88
685.20	10.69
685.40	9.16
685.60	6.70
685.79	8.68
685.99	8.27
686.19	9.51
686.38	11.13
686.58	12.01
686.77	17.18
686.97	19.27
687.17	21.71
687.36	24.37
687.56	23.22
687.76	21.22
687.95	20.76
688.15	19.90
688.34	18.88
688.54	18.56
688.74	18.19
688.93	15.25
689.13	11.15
689.33	10.85
689.52	10.17
689.72	11.69
689.91	13.96
690.11	11.39
690.31	12.83
690.50	14.28
690.70	15.99
690.89	15.73
691.09	14.97
691.29	17.18
691.48	17.71
691.68	18.30
691.87	18.97
692.07	17.93
692.27	22.17
692.46	21.80
692.66	20.78
692.85	19.36
693.05	20.48
693.25	21.00
693.44	19.98
693.64	22.60
693.83	20.85
694.03	17.91
694.22	17.87
694.42	16.53
694.62	15.49
694.81	15.75
695.01	16.09
695.20	13.24
695.40	14.41
695.59	15.88
695.79	15.08
695.99	17.33
696.18	17.09
696.38	19.53
696.57	22.47
696.77	22.73
696.96	18.77
697.16	21.54
697.36	22.64
697.55	23.22
697.75	24.71
697.94	20.89
698.14	17.87
698.33	19.34
698.53	17.63
698.72	15.40
698.92	17.18
699.11	20.39
699.31	18.00
699.51	19.47
699.70	17.71
699.90	14.84
700.09	16.51
700.29	18.80
700.48	17.24
700.68	19.20
700.87	20.74
701.07	21.62
701.26	22.17
701.46	21.35
701.65	21.95
701.85	24.09
702.04	23.46
702.24	24.72
702.43	25.36
702.63	27.52
702.82	25.66
703.02	22.06
703.21	20.18
703.41	17.67
703.60	16.31
703.80	13.81
703.99	12.77
704.19	12.46
704.38	11.00
704.58	10.30
704.77	9.40
704.97	9.23
705.16	13.18
705.36	12.79
705.55	14.75
705.75	14.06
705.94	14.93
706.14	16.59
706.33	18.93
706.53	18.32
706.72	18.97
706.92	18.69
707.11	21.15
707.31	17.00
707.50	19.47
707.70	17.95
707.89	20.46
708.09	23.51
708.28	23.79
708.48	21.02
708.67	21.21
708.86	22.97
709.06	25.28
709.25	21.09
709.45	23.05
709.64	18.62
709.84	18.84
710.03	15.97
710.23	11.52
710.42	9.10
710.62	8.06
710.81	8.38
711.00	6.80
711.20	6.42
711.39	10.02
711.59	8.75
711.78	8.56
711.98	11.32
712.17	15.47
712.37	16.42
712.56	15.23
712.75	18.34
712.95	18.32
713.14	17.46
713.34	18.02
713.53	16.66
713.73	17.37
713.92	20.95
714.11	21.54
714.31	18.12
714.50	19.62
714.70	21.52
714.89	21.88
715.08	20.52
715.28	20.13
715.47	20.14
715.67	22.21
715.86	20.41
716.06	19.34
716.25	15.84
716.44	11.62
716.64	9.64
716.83	10.85
717.03	9.25
717.22	13.27
717.41	13.52
717.61	12.44
717.80	8.28
717.99	12.73
718.19	13.39
718.38	15.99
718.58	20.70
718.77	21.41
718.96	19.16
719.16	21.37
719.35	18.66
719.55	17.44
719.74	16.07
719.93	18.54
720.13	14.04
720.32	12.08
720.51	9.87
720.71	10.13
720.90	12.42
721.10	12.38
721.29	10.20
721.48	12.33
721.68	13.03
721.87	14.15
722.06	12.92
722.26	15.68
722.45	19.70
722.64	19.44
722.84	19.66
723.03	16.33
723.22	17.80
723.42	18.23
723.61	15.75
723.80	16.33
724.00	16.23
724.19	17.82
724.38	17.30
724.58	15.62
724.77	19.31
724.96	16.31
725.16	16.98
725.35	17.69
725.54	18.23
725.74	19.60
725.93	20.05
726.12	18.60
726.32	16.85
726.51	18.08
726.70	18.43
726.90	14.78
727.09	17.97
727.28	18.86
727.48	15.14
727.67	15.55
727.86	15.84
728.06	16.38
728.25	15.68
728.44	16.31
728.64	13.59
728.83	11.06
729.02	11.41
729.21	10.85
729.41	11.56
729.60	13.76
729.79	16.63
729.99	16.09
730.18	14.67
730.37	19.23
730.56	21.04
730.76	20.89
730.95	22.66
731.14	22.71
731.34	19.64
731.53	19.21
731.72	19.25
731.91	16.68
732.11	15.60
732.30	14.52
732.49	10.31
732.69	10.46
732.88	10.56
733.07	12.12
733.26	11.30
733.46	10.98
733.65	8.81
733.84	8.14
734.03	6.22
734.23	8.27
734.42	7.71
734.61	8.82
734.80	9.09
735.00	8.55
735.19	6.03
735.38	7.73
735.57	13.01
735.77	13.16
735.96	11.32
736.15	10.84
736.34	9.53
736.54	13.59
736.73	14.88
736.92	9.20
737.11	10.11
737.31	11.02
737.50	9.90
737.69	7.17
737.88	7.37
738.07	8.27
738.27	9.50
738.46	10.33
738.65	9.05
738.84	7.88
739.04	8.73
739.23	9.50
739.42	6.65
739.61	9.29
739.80	12.16
740.00	14.45
740.19	15.14
740.38	14.78
740.57	15.08
740.76	12.68
740.96	13.29
741.15	14.35
741.34	13.31
741.53	15.83
741.72	13.07
741.92	12.59
742.11	12.12
742.30	11.41
742.49	11.45
742.68	8.82
742.88	11.38
743.07	12.19
743.26	17.11
743.45	19.72
743.64	21.28
743.84	23.50
744.03	21.22
744.22	19.64
744.41	21.26
744.60	18.90
744.79	19.81
744.99	20.22
745.18	21.67
745.37	17.44
745.56	17.61
745.75	16.20
745.94	14.24
746.14	14.58
746.33	16.83
746.52	17.58
746.71	18.75
746.90	19.44
747.09	18.80
747.28	14.78
747.48	17.89
747.67	17.24
747.86	15.01
748.05	14.67
748.24	13.11
748.43	12.19
748.62	11.49
748.82	12.75
749.01	12.57
749.20	10.69
749.39	12.59
749.58	11.77
749.77	9.89
749.96	10.43
750.16	10.31
750.35	10.63
750.54	12.79
750.73	12.18
750.92	15.56
751.11	14.80
751.30	14.35
751.49	14.11
751.68	9.07
751.88	12.18
752.07	14.58
752.26	15.71
752.45	17.48
752.64	14.37
752.83	15.68
753.02	11.82
753.21	10.91
753.40	13.01
753.60	13.07
753.79	16.77
753.98	12.77
754.17	14.06
754.36	15.64
754.55	14.99
754.74	14.32
754.93	14.00
755.12	15.02
755.31	15.64
755.50	14.11
755.70	16.25
755.89	18.10
756.08	16.05
756.27	14.30
756.46	16.23
756.65	18.38
756.84	18.39
757.03	17.78
757.22	17.33
757.41	20.67
757.60	22.27
757.79	18.51
757.98	15.55
758.17	21.26
758.36	20.16
758.56	16.38
758.75	14.45
758.94	16.57
759.13	17.74
759.32	19.06
759.51	16.40
759.70	13.07
759.89	15.56
760.08	15.96
760.27	13.05
760.46	12.10
760.65	11.80
760.84	13.44
761.03	12.53
761.22	13.20
761.41	10.48
761.60	10.78
761.79	13.35
761.98	14.04
762.17	17.39
762.36	19.14
762.55	18.19
762.74	18.54
762.93	19.73
763.12	18.34
763.31	16.76
763.50	19.01
763.69	18.90
763.88	18.04
764.07	18.28
764.26	11.86
764.45	8.06
764.64	9.96
764.83	8.88
765.02	7.30
765.21	9.09
765.40	8.15
765.59	5.27
765.78	7.63
765.97	5.72
766.16	3.59
766.35	8.45
766.54	11.54
766.73	9.85
766.92	9.89
767.11	8.82
767.30	6.03
767.49	2.83
767.68	6.53
767.87	2.79
768.06	5.25
768.25	5.62
768.44	5.23
768.63	7.07
768.82	9.12
769.01	10.24
769.20	12.79
769.39	15.43
769.58	19.75
769.77	19.38
769.96	22.49
770.15	22.70
770.34	20.63
770.53	18.54
770.72	17.00
770.91	16.37
771.10	15.42
771.29	10.61
771.47	9.87
771.66	9.38
771.85	7.56
772.04	5.59
772.23	3.98
772.42	5.51
772.61	6.35
772.80	5.86
772.99	5.81
773.18	3.95
773.37	5.75
773.56	4.15
773.75	4.54
773.94	3.89
774.13	2.70
774.31	5.19
774.50	5.03
774.69	5.18
774.88	6.07
775.07	9.35
775.26	11.67
775.45	13.94
775.64	15.62
775.83	17.22
776.02	19.85
776.21	23.18
776.40	25.23
776.58	25.66
776.77	26.16
776.96	26.57
777.15	26.10
777.34	24.54
777.53	21.73
777.72	22.88
777.91	21.26
778.10	17.78
778.28	15.32
778.47	11.69
778.66	13.00
778.85	13.67
779.04	11.52
779.23	6.89
779.42	7.80
779.61	6.52
779.79	7.63
779.98	7.48
780.17	9.16
780.36	8.77
780.55	10.04
780.74	8.79
780.93	7.02
781.12	9.51
781.30	12.60
781.49	13.31
781.68	17.91
781.87	16.63
782.06	16.10
782.25	18.62
782.44	20.44
782.62	20.05
782.81	19.14
783.00	19.16
783.19	17.11
783.38	17.98
783.57	17.87
783.75	14.17
783.94	15.23
784.13	16.14
784.32	13.70
784.51	12.29
784.70	10.28
784.88	12.51
785.07	12.55
785.26	14.00
785.45	10.89
785.64	12.23
785.83	10.61
786.01	8.45
786.20	7.17
786.39	5.86
786.58	7.28
786.77	6.35
786.95	3.74
787.14	4.69
787.33	4.19
787.52	5.55
787.71	3.39
787.90	5.55
788.08	7.78
788.27	9.25
788.46	10.80
788.65	10.65
788.84	10.85
789.02	9.44
789.21	8.86
789.40	6.68
789.59	7.60
789.77	8.73
789.96	7.61
790.15	4.08
790.34	4.64
790.53	4.77
790.71	3.89
790.90	6.07
791.09	9.81
791.28	10.95
791.46	12.51
791.65	12.42
791.84	12.46
792.03	13.61
792.22	15.43
792.40	16.14
792.59	17.87
792.78	18.04
792.97	19.57
793.15	17.30
793.34	15.36
793.53	14.13
793.72	13.14
793.90	11.32
794.09	11.39
794.28	11.38
794.47	8.01
794.65	3.52
794.84	4.67
795.03	2.48
795.22	3.26
795.40	6.26
795.59	6.31
795.78	8.96
795.97	8.68
796.15	10.11
796.34	5.38
796.53	8.15
796.71	7.82
796.90	6.65
797.09	7.35
797.28	7.61
797.46	6.05
797.65	5.77
797.84	3.85
798.02	4.95
798.21	7.73
798.40	10.26
798.59	9.68
798.77	14.88
798.96	16.59
799.15	16.46
799.33	17.74
799.52	19.33
799.71	16.92
799.90	15.06
800.08	17.74
800.27	16.63
800.46	18.77
800.64	17.05
800.83	15.43
801.02	15.08
801.20	16.09
801.39	14.71
801.58	15.77
801.76	19.68
801.95	21.06
802.14	20.09
802.32	18.10
802.51	18.52
802.70	17.80
802.88	16.83
803.07	14.84
803.26	14.71
803.44	14.21
803.63	12.36
803.82	11.38
804.00	11.82
804.19	8.99
804.38	11.30
804.56	8.88
804.75	10.35
804.94	9.53
805.12	9.20
805.31	11.65
805.50	13.96
805.68	8.64
805.87	11.88
806.06	11.26
806.24	14.28
806.43	9.72
806.62	12.92
806.80	14.21
806.99	14.76
807.17	16.61
807.36	15.06
807.55	10.30
807.73	15.64
807.92	15.23
808.11	15.88
808.29	14.30
808.48	16.31
808.66	16.09
808.85	15.30
809.04	17.67
809.22	19.79
809.41	18.79
809.59	20.91
809.78	17.22
809.97	12.83
810.15	11.58
810.34	12.66
810.53	11.41
810.71	10.91
810.90	10.24
811.08	7.61
811.27	1.56
811.45	2.63
811.64	1.94
811.83	4.95
812.01	6.01
812.20	8.10
812.38	8.64
812.57	9.20
812.76	8.23
812.94	6.55
813.13	7.06
813.31	10.39
813.50	7.34
813.68	6.80
813.87	7.30
814.06	10.97
814.24	8.66
814.43	8.94
814.61	11.11
814.80	11.92
814.98	14.56
815.17	14.80
815.36	10.39
815.54	11.11
815.73	10.54
815.91	9.87
816.10	8.88
816.28	10.33
816.47	7.21
816.65	5.16
816.84	5.14
817.03	1.40
817.21	1.40
817.40	2.96
817.58	1.55
817.77	2.85
817.95	1.53
818.14	3.20
818.32	5.10
818.51	7.13
818.69	7.37
818.88	8.47
819.06	11.10
819.25	11.38
819.43	13.48
819.62	13.42
819.80	14.00
819.99	13.20
820.18	7.30
820.36	4.45
820.55	3.30
820.73	5.21
820.92	2.03
821.10	0.22
821.29	-1.64
821.47	-0.86
821.66	1.43
821.84	2.48
822.03	2.92
822.21	5.72
822.40	8.15
822.58	9.36
822.77	6.72
822.95	7.04
823.14	8.73
823.32	10.57
823.50	9.46
823.69	9.59
823.87	8.75
824.06	8.34
824.24	8.90
824.43	5.79
824.61	8.04
824.80	9.48
824.98	7.89
825.17	6.74
825.35	7.82
825.54	6.29
825.72	5.46
825.91	7.61
826.09	9.23
826.28	7.63
826.46	7.73
826.64	4.52
826.83	4.00
827.01	7.39
827.20	5.05
827.38	2.61
827.57	0.86
827.75	0.71
827.94	-0.78
828.12	-1.38
828.31	-2.70
828.49	-0.93
828.67	-1.10
828.86	-1.12
829.04	-2.89
829.23	1.69
829.41	6.27
829.60	11.67
829.78	14.93
829.96	14.39
830.15	13.05
830.33	13.87
830.52	13.98
830.70	15.19
830.88	15.45
831.07	18.36
831.25	16.12
831.44	13.83
831.62	12.44
831.81	8.82
831.99	8.53
832.17	11.71
832.36	12.92
832.54	12.53
832.73	11.54
832.91	10.04
833.09	7.56
833.28	6.70
833.46	6.44
833.65	5.29
833.83	2.85
834.01	2.98
834.20	2.10
834.38	3.41
834.56	3.85
834.75	4.80
834.93	7.07
835.12	3.97
835.30	4.84
835.48	1.86
835.67	3.03
835.85	4.88
836.03	4.04
836.22	3.46
836.40	2.14
836.59	-0.26
836.77	-4.08
836.95	-5.79
837.14	-1.23
837.32	0.09
837.50	2.10
837.69	1.06
837.87	1.97
838.05	0.67
838.24	-0.78
838.42	-1.94
838.60	-2.35
838.79	1.47
838.97	2.74
839.15	0.48
839.34	-1.68
839.52	-0.80
839.70	1.19
839.89	3.93
840.07	5.88
840.25	4.43
840.44	6.11
840.62	7.95
840.80	7.73
840.99	6.91
841.17	8.01
841.35	10.78
841.54	11.69
841.72	7.61
841.90	5.10
842.09	5.83
842.27	8.60
842.45	8.04
842.64	7.95
842.82	6.65
843.00	4.23
843.19	4.51
843.37	3.95
843.55	-1.58
843.73	-1.58
843.92	-1.92
844.10	-3.15
844.28	-2.94
844.47	-1.51
844.65	-1.49
844.83	0.37
845.01	2.03
845.20	3.00
845.38	1.49
845.56	6.50
845.75	8.43
845.93	8.28
846.11	6.67
846.29	6.85
846.48	5.53
846.66	5.53
846.84	1.66
847.02	1.90
847.21	-1.21
847.39	1.69
847.57	-3.57
847.76	-3.72
847.94	-4.64
848.12	-3.97
848.30	-1.14
848.49	-1.68
848.67	1.14
848.85	5.64
849.03	6.33
849.22	9.10
849.40	7.54
849.58	13.29
849.76	12.64
849.95	13.22
850.13	13.76
850.31	12.19
850.49	13.98
850.67	9.79
850.86	8.66
851.04	10.13
851.22	9.70
851.40	11.84
851.59	10.89
851.77	10.87
851.95	13.68
852.13	14.58
852.31	11.86
852.50	11.52
852.68	10.59
852.86	9.90
853.04	6.26
853.23	5.06
853.41	2.55
853.59	-0.41
853.77	1.17
853.95	-1.45
854.14	-0.74
854.32	0.17
854.50	-0.54
854.68	2.85
854.86	3.07
855.04	6.89
855.23	7.37
855.41	9.01
855.59	10.39
855.77	12.19
855.95	14.00
856.14	12.08
856.32	11.69
856.50	11.73
856.68	9.03
856.86	10.07
857.04	7.07
857.23	6.01
857.41	5.27
857.59	4.47
857.77	1.75
857.95	-1.19
858.13	-0.78
858.32	-0.19
858.50	0.43
858.68	1.17
858.86	-1.60
859.04	-1.95
859.22	0.32
859.41	0.09
859.59	1.58
859.77	-0.15
859.95	3.39
860.13	4.47
860.31	1.60
860.49	1.95
860.68	3.44
860.86	5.83
861.04	7.67
861.22	6.67
861.40	5.42
861.58	6.24
861.76	7.84
861.94	6.57
862.13	6.67
862.31	7.89
862.49	7.19
862.67	4.86
862.85	1.81
863.03	-0.71
863.21	-4.32
863.39	-4.71
863.57	-9.38
863.76	-4.69
863.94	-5.18
864.12	-5.01
864.30	-0.65
864.48	1.02
864.66	3.31
864.84	3.48
865.02	6.01
865.20	8.62
865.38	10.43
865.57	13.16
865.75	10.13
865.93	9.66
866.11	6.78
866.29	5.64
866.47	2.44
866.65	3.43
866.83	5.44
867.01	1.97
867.19	0.97
867.37	-0.61
867.55	-2.01
867.73	-3.80
867.92	-0.32
868.10	3.30
868.28	1.81
868.46	2.18
868.64	-1.34
868.82	-3.09
869.00	1.34
869.18	4.02
869.36	3.13
869.54	7.13
869.72	9.50
869.90	3.78
870.08	2.05
870.26	0.02
870.44	-3.57
870.62	1.01
870.80	3.91
870.98	2.90
871.16	1.15
871.34	1.30
871.53	-1.02
871.71	-3.41
871.89	-2.72
872.07	-1.36
872.25	1.32
872.43	5.05
872.61	2.79
872.79	3.95
872.97	4.77
873.15	5.83
873.33	5.29
873.51	5.18
873.69	8.47
873.87	11.99
874.05	12.70
874.23	11.86
874.41	11.26
874.59	10.24
874.77	5.49
874.95	2.44
875.13	1.62
875.31	5.25
875.49	4.10
875.67	-0.71
875.85	-1.40
876.03	-2.25
876.21	-4.13
876.39	-1.86
876.57	-0.30
876.75	0.60
876.93	0.69
877.11	3.11
877.29	1.79
877.47	3.69
877.65	3.87
877.82	2.20
878.00	-0.20
878.18	1.14
878.36	0.56
878.54	-0.61
878.72	0.35
878.90	3.59
879.08	1.62
879.26	-0.88
879.44	-3.50
879.62	1.34
879.80	-1.10
879.98	1.66
880.16	2.09
880.34	2.33
880.52	-0.15
880.70	-1.28
880.88	-0.56
881.06	-0.24
881.24	0.06
881.42	3.67
881.59	-0.04
881.77	3.61
881.95	1.95
882.13	-0.52
882.31	0.41
882.49	1.79
882.67	4.45
882.85	-0.82
883.03	-0.19
883.21	-0.48
883.39	-0.69
883.57	1.21
883.75	-0.17
883.92	-0.11
884.10	2.49
884.28	1.30
884.46	2.10
884.64	1.08
884.82	7.43
885.00	10.30
885.18	12.94
885.36	9.38
885.54	7.69
885.71	11.80
885.89	13.70
886.07	15.49
886.25	16.66
886.43	15.34
886.61	14.21
886.79	10.41
886.97	7.09
887.15	7.13
887.32	12.10
887.50	12.90
887.68	9.09
887.86	7.69
888.04	7.82
888.22	7.32
888.40	7.13
888.57	8.56
888.75	7.61
888.93	9.18
889.11	7.65
889.29	3.84
889.47	5.47
889.65	7.67
889.82	8.38
890.00	5.31
890.18	5.92
890.36	6.91
890.54	7.95
890.72	8.42
890.90	8.49
891.07	8.92
891.25	7.00
891.43	3.76
891.61	1.66
891.79	1.36
891.97	0.71
892.14	-1.45
892.32	-2.44
892.50	-2.87
892.68	-2.59
892.86	-8.77
893.03	-8.90
893.21	-5.34
893.39	-8.32
893.57	-8.81
893.75	-7.45
893.93	-5.70
894.10	-5.68
894.28	-3.31
894.46	-0.74
894.64	-5.96
894.82	0.97
894.99	1.21
895.17	1.60
895.35	7.95
895.53	10.91
895.71	5.99
895.88	5.85
896.06	4.24
896.24	3.87
896.42	0.54
896.59	4.23
896.77	3.39
896.95	6.39
897.13	4.84
897.31	3.05
897.48	2.94
897.66	4.90
897.84	2.38
898.02	3.30
898.19	0.35
898.37	-1.99
898.55	1.68
898.73	0.99
898.91	-3.20
899.08	-4.56
899.26	-5.32
899.44	-7.06
899.62	-8.10
899.79	-7.39
899.97	-4.97
900.15	-1.94
900.33	-0.99
900.50	-2.40
900.68	-5.40
900.86	-1.27
901.04	1.53
901.21	4.45
901.39	3.82
901.57	7.32
901.74	8.77
901.92	7.30
902.10	4.51
902.28	2.70
902.45	0.07
902.63	0.82
902.81	0.61
902.99	-1.12
903.16	-3.67
903.34	-2.79
903.52	-4.19
903.69	-2.46
903.87	-3.33
904.05	0.13
904.22	1.53
904.40	3.50
904.58	5.08
904.76	4.04
904.93	4.24
905.11	6.22
905.29	6.20
905.46	7.06
905.64	4.15
905.82	4.13
905.99	-0.97
906.17	0.58
906.35	2.51
906.53	2.23
906.70	0.71
906.88	0.76
907.06	-1.47
907.23	-0.60
907.41	-3.70
907.59	-0.22
907.76	0.26
907.94	5.57
908.12	4.60
908.29	3.72
908.47	2.68
908.65	1.38
908.82	2.09
909.00	1.47
909.18	-0.06
909.35	0.26
909.53	-1.45
909.71	-3.44
909.88	-4.80
910.06	-1.06
910.23	1.38
910.41	1.75
910.59	4.77
910.76	4.06
910.94	7.30
911.12	7.88
911.29	8.73
911.47	7.17
911.65	9.18
911.82	7.54
912.00	5.14
912.17	1.56
912.35	1.02
912.53	-1.32
912.70	-1.28
912.88	-4.67
913.06	-3.56
913.23	-2.38
913.41	-3.30
913.58	-1.19
913.76	-2.16
913.94	-0.65
914.11	-0.47
914.29	-1.23
914.46	0.61
914.64	6.16
914.82	9.48
914.99	9.50
915.17	9.10
915.34	11.32
915.52	9.18
915.70	10.71
915.87	7.43
916.05	7.02
916.22	8.86
916.40	8.04
916.57	1.58
916.75	-0.15
916.93	-2.36
917.10	-1.12
917.28	-3.37
917.45	-2.98
917.63	-4.15
917.80	-2.40
917.98	-1.23
918.16	-1.01
918.33	-3.15
918.51	-2.85
918.68	-4.93
918.86	-3.11
919.03	-3.67
919.21	-2.20
919.39	-1.28
919.56	-0.34
919.74	-1.60
919.91	-2.90
920.09	-5.10
920.26	-3.18
920.44	-1.95
920.61	-2.25
920.79	-2.81
920.96	-4.73
921.14	-2.96
921.31	-5.68
921.49	-3.93
921.67	-3.41
921.84	-4.11
922.02	0.30
922.19	0.95
922.37	1.53
922.54	1.53
922.72	0.15
922.89	2.42
923.07	-0.65
923.24	3.22
923.42	0.45
923.59	0.35
923.77	2.55
923.94	-2.25
924.12	-3.28
924.29	-3.03
924.47	-1.17
924.64	3.59
924.82	4.88
924.99	7.78
925.17	6.39
925.34	8.84
925.52	8.32
925.69	7.24
925.87	10.56
926.04	9.03
926.22	9.94
926.39	10.98
926.57	8.42
926.74	7.13
926.91	4.84
927.09	2.48
927.26	1.64
927.44	2.68
927.61	2.83
927.79	2.40
927.96	3.69
928.14	0.58
928.31	3.20
928.49	2.27
928.66	3.85
928.84	3.76
929.01	3.54
929.18	3.03
929.36	3.13
929.53	4.10
929.71	1.01
929.88	2.98
930.06	3.72
930.23	0.00
930.41	-3.80
930.58	-6.26
930.75	-3.07
930.93	-1.08
931.10	-0.39
931.28	-4.73
931.45	-6.13
931.63	-2.40
931.80	-4.36
931.97	-3.98
932.15	-2.66
932.32	1.19
932.50	-0.17
932.67	0.71
932.84	-0.95
933.02	1.45
933.19	2.25
933.37	1.36
933.54	-0.76
933.71	1.21
933.89	0.89
934.06	-1.60
934.24	-2.77
934.41	-2.53
934.58	-4.11
934.76	-0.78
934.93	-2.20
935.11	1.38
935.28	3.44
935.45	1.10
935.63	0.15
935.80	-0.48
935.98	1.04
936.15	0.63
936.32	0.24
936.50	1.36
936.67	-2.49
936.84	-3.57
937.02	-4.43
937.19	-6.11
937.36	-5.77
937.54	-10.78
937.71	-10.13
937.89	-10.33
938.06	-11.67
938.23	-12.77
938.41	-14.62
938.58	-10.33
938.75	-11.15
938.93	-12.14
939.10	-10.20
939.27	-6.87
939.45	-1.49
939.62	-1.71
939.79	-3.84
939.97	-3.13
940.14	-0.71
940.31	-1.01
940.49	-5.34
940.66	-3.03
940.83	-1.68
941.01	-2.55
941.18	-3.69
941.35	-5.34
941.53	-4.13
941.70	-0.20
941.87	1.40
942.05	1.23
942.22	0.89
942.39	4.47
942.57	3.78
942.74	7.71
942.91	7.13
943.08	5.66
943.26	7.30
943.43	5.36
943.60	6.65
943.78	9.10
943.95	8.92
944.12	10.46
944.29	9.05
944.47	8.97
944.64	5.86
944.81	4.78
944.99	7.35
945.16	2.81
945.33	0.63
945.50	-1.06
945.68	-2.92
945.85	-4.82
946.02	-7.69
946.20	-7.88
946.37	-9.33
946.54	-8.36
946.71	-5.73
946.89	-6.01
947.06	-0.91
947.23	3.09
947.40	3.97
947.58	4.39
947.75	6.05
947.92	7.13
948.09	7.39
948.27	9.77
948.44	8.10
948.61	5.77
948.78	5.98
948.96	4.52
949.13	6.87
949.30	4.34
949.47	0.56
949.65	-0.73
949.82	1.27
949.99	0.02
950.16	-2.53
950.33	-4.30
950.51	-6.03
950.68	-6.55
950.85	-7.15
951.02	-9.59
951.20	-9.72
951.37	-6.80
951.54	-6.29
951.71	-8.23
951.88	-7.82
952.06	-7.50
952.23	-6.93
952.40	-7.71
952.57	-7.37
952.74	-6.03
952.92	-7.15
953.09	-4.13
953.26	-6.40
953.43	-5.60
953.60	-8.23
953.77	-6.37
953.95	-4.62
954.12	-3.82
954.29	0.89
954.46	1.04
954.63	-1.04
954.81	-1.38
954.98	-1.90
955.15	0.82
955.32	3.09
955.49	4.95
955.66	5.25
955.84	4.99
956.01	5.16
956.18	4.54
956.35	3.85
956.52	5.40
956.69	4.56
956.87	4.19
957.04	2.03
957.21	0.67
957.38	1.97
957.55	1.19
957.72	1.88
957.89	2.87
958.07	1.06
958.24	-0.15
958.41	0.71
958.58	0.52
958.75	-1.49
958.92	0.00
959.09	2.59
959.26	2.40
959.44	2.22
959.61	0.58
959.78	0.89
959.95	2.92
960.12	4.52
960.29	5.01
960.46	2.53
960.63	3.20
960.81	2.38
960.98	0.48
961.15	0.47
961.32	1.88
961.49	0.45
961.66	0.86
961.83	1.58
962.00	2.20
962.17	-1.55
962.34	3.30
962.52	1.66
962.69	1.47
962.86	-0.82
963.03	-0.84
963.20	-0.74
963.37	0.82
963.54	-0.78
963.71	0.60
963.88	-2.20
964.05	2.38
964.22	0.69
964.39	2.12
964.56	1.53
964.74	3.05
964.91	3.24
965.08	0.78
965.25	0.82
965.42	-0.61
965.59	-2.79
965.76	-2.22
965.93	-3.18
966.10	-0.15
966.27	1.69
966.44	1.97
966.61	3.15
966.78	1.51
966.95	3.17
967.12	5.83
967.29	5.88
967.46	3.80
967.63	5.29
967.80	2.92
967.97	3.57
968.14	1.56
968.32	1.41
968.49	2.36
968.66	3.43
968.83	2.63
969.00	0.88
969.17	3.52
969.34	4.95
969.51	1.66
969.68	4.99
969.85	2.79
970.02	3.05
970.19	5.31
970.36	6.07
970.53	9.09
970.70	6.83
970.87	2.35
971.04	1.14
971.21	0.80
971.38	4.36
971.55	2.85
971.72	3.87
971.89	4.19
972.06	5.27
972.23	2.83
972.40	1.64
972.57	3.41
972.74	8.21
972.91	9.22
973.07	9.36
973.24	7.63
973.41	6.07
973.58	4.54
973.75	4.86
973.92	4.71
974.09	2.29
974.26	1.75
974.43	0.80
974.60	1.19
974.77	0.82
974.94	2.53
975.11	4.49
975.28	2.53
975.45	1.49
975.62	0.48
975.79	-2.48
975.96	1.17
976.13	-0.04
976.30	1.04
976.47	-2.77
976.64	-5.88
976.80	-8.97
976.97	-11.92
977.14	-10.07
977.31	-6.18
977.48	-4.80
977.65	-1.30
977.82	-2.12
977.99	0.19
978.16	-0.37
978.33	1.34
978.50	2.48
978.67	3.59
978.83	8.04
979.00	7.35
979.17	5.53
979.34	4.67
979.51	4.10
979.68	3.39
979.85	1.15
980.02	0.91
980.19	-0.50
980.36	-0.56
980.52	-3.05
980.69	-6.13
980.86	-5.51
981.03	-6.01
981.20	-5.29
981.37	-5.98
981.54	-5.73
981.71	-6.93
981.88	-7.21
982.04	-6.78
982.21	-4.65
982.38	-1.62
982.55	-0.41
982.72	3.74
982.89	1.94
983.06	-0.09
983.22	-2.05
983.39	-4.04
983.56	-0.74
983.73	0.26
983.90	2.44
984.07	2.09
984.24	2.20
984.40	0.89
984.57	-1.95
984.74	1.17
984.91	0.99
985.08	4.00
985.25	5.06
985.41	3.80
985.58	4.41
985.75	7.00
985.92	9.98
986.09	4.90
986.26	6.55
986.42	5.83
986.59	5.18
986.76	10.22
986.93	8.81
987.10	10.61
987.27	8.86
987.43	8.96
987.60	4.84
987.77	1.95
987.94	7.97
988.11	7.37
988.27	8.30
988.44	8.34
988.61	8.34
988.78	6.78
988.95	5.98
989.11	8.08
989.28	8.40
989.45	8.27
989.62	8.81
989.79	7.22
989.95	3.78
990.12	1.25
990.29	0.78
990.46	-2.90
990.62	-1.45
990.79	-1.62
990.96	-0.80
991.13	-3.33
991.30	-2.33
991.46	-5.42
991.63	-1.64
991.80	0.20
991.97	2.23
992.13	3.28
992.30	4.84
992.47	5.99
992.64	3.24
992.80	2.12
992.97	4.64
993.14	6.61
993.31	9.31
993.47	5.79
993.64	6.74
993.81	8.97
993.98	5.42
994.14	3.37
994.31	1.58
994.48	3.80
994.64	2.79
994.81	2.01
994.98	-1.17
995.15	0.39
995.31	0.60
995.48	2.53
995.65	0.48
995.82	2.14
995.98	2.01
996.15	4.56
996.32	5.18
996.48	8.47
996.65	10.87
996.82	15.34
996.99	13.91
997.15	14.02
997.32	14.17
997.49	14.78
997.65	14.35
997.82	15.77
997.99	12.55
998.15	11.11
998.32	9.27
998.49	5.75
998.65	3.33
998.82	0.11
998.99	-0.45
999.15	-2.61
999.32	-3.28
999.49	-3.56
999.65	-4.97
999.82	-6.93
999.99	-7.17
1000.15	-8.49
1000.32	-7.37
1000.49	-7.28
1000.65	-4.49
1000.82	-3.74
1000.99	-2.31
1001.15	-0.45
1001.32	0.88
1001.49	2.10
1001.65	3.28
1001.82	3.69
1001.99	3.39
1002.15	5.42
1002.32	6.01
1002.49	5.55
1002.65	7.75
1002.82	7.78
1002.99	4.67
1003.15	4.56
1003.32	4.04
1003.48	5.68
1003.65	6.78
1003.82	5.08
1003.98	4.67
1004.15	2.66
1004.32	4.30
1004.48	3.41
1004.65	3.87
1004.81	8.45
1004.98	8.77
1005.15	9.20
1005.31	8.42
1005.48	7.54
1005.64	8.60
1005.81	6.20
1005.98	7.65
1006.14	5.66
1006.31	5.18
1006.47	4.23
1006.64	-1.12
1006.81	-0.30
1006.97	-1.53
1007.14	-0.39
1007.30	2.35
1007.47	2.31
1007.63	1.55
1007.80	-1.36
1007.97	-0.15
1008.13	0.30
1008.30	-0.63
1008.46	2.09
1008.63	3.22
1008.79	5.83
1008.96	4.60
1009.13	-0.82
1009.29	0.34
1009.46	1.32
1009.62	1.94
1009.79	-1.10
1009.95	0.39
1010.12	0.09
1010.28	-1.68
1010.45	-4.73
1010.62	-5.51
1010.78	-3.48
1010.95	1.36
1011.11	2.38
1011.28	2.10
1011.44	3.03
1011.61	5.81
1011.77	4.86
1011.94	5.16
1012.10	5.62
1012.27	7.56
1012.43	5.25
1012.60	3.02
1012.76	-0.07
1012.93	-0.54
1013.10	-0.32
1013.26	0.41
1013.43	2.46
1013.59	-0.56
1013.76	-0.69
1013.92	-1.17
1014.09	-3.31
1014.25	-3.26
1014.42	-1.94
1014.58	1.97
1014.75	-0.17
1014.91	-1.32
1015.08	-1.66
1015.24	-5.03
1015.41	-3.89
1015.57	-2.55
1015.73	-1.97
1015.90	0.15
1016.06	1.21
1016.23	1.79
1016.39	-2.79
1016.56	-0.65
1016.72	-2.81
1016.89	-1.94
1017.05	0.50
1017.22	-0.65
1017.38	0.82
1017.55	1.08
1017.71	2.42
1017.88	2.96
1018.04	2.12
1018.21	3.72
1018.37	4.15
1018.53	8.19
1018.70	8.69
1018.86	7.56
1019.03	7.69
1019.19	7.60
1019.36	7.54
1019.52	4.15
1019.69	4.38
1019.85	3.70
1020.01	5.12
1020.18	5.47
1020.34	6.11
1020.51	4.36
1020.67	3.13
1020.84	7.00
1021.00	4.39
1021.16	6.72
1021.33	9.14
1021.49	7.56
1021.66	9.96
1021.82	7.84
1021.98	6.09
1022.15	8.82
1022.31	7.99
1022.48	6.83
1022.64	6.20
1022.80	9.22
1022.97	7.15
1023.13	6.83
1023.30	7.73
1023.46	6.67
1023.62	9.20
1023.79	9.23
1023.95	7.02
1024.12	12.08
1024.28	15.30
1024.44	16.10
1024.61	14.48
1024.77	13.11
1024.93	9.74
1025.10	8.97
1025.26	10.28
1025.43	9.33
1025.59	9.23
1025.75	7.86
1025.92	6.22
1026.08	3.70
1026.24	1.69
1026.41	2.53
1026.57	5.03
1026.73	8.55
1026.90	9.44
1027.06	4.75
1027.23	0.97
1027.39	-0.19
1027.55	-0.30
1027.72	-1.82
1027.88	0.13
1028.04	-3.09
1028.21	-4.65
1028.37	-6.37
1028.53	-6.89
1028.70	-8.27
1028.86	-7.58
1029.02	-4.36
1029.19	0.34
1029.35	3.17
1029.51	1.51
1029.67	1.53
1029.84	3.17
1030.00	5.23
1030.16	4.11
1030.33	2.63
1030.49	4.64
1030.65	4.77
1030.82	4.97
1030.98	2.74
1031.14	-1.69
1031.31	-0.63
1031.47	0.09
1031.63	-0.37
1031.79	-1.49
1031.96	-0.26
1032.12	-0.13
1032.28	-0.84
1032.45	1.62
1032.61	2.96
1032.77	3.20
1032.93	4.78
1033.10	6.46
1033.26	3.17
1033.42	4.00
1033.58	8.28
1033.75	8.36
1033.91	3.80
1034.07	4.02
1034.24	2.98
1034.40	1.19
1034.56	1.53
1034.72	4.30
1034.89	2.76
1035.05	6.14
1035.21	4.34
1035.37	0.24
1035.54	-1.17
1035.70	3.07
1035.86	2.16
1036.02	3.02
1036.19	6.50
1036.35	5.60
1036.51	1.45
1036.67	1.99
1036.83	-0.13
1037.00	-0.54
1037.16	-0.61
1037.32	0.15
1037.48	-0.54
1037.65	-0.50
1037.81	-4.47
1037.97	-4.99
1038.13	-7.06
1038.29	-6.39
1038.46	-6.18
1038.62	-4.54
1038.78	-2.94
1038.94	-1.82
1039.10	-0.22
1039.27	2.87
1039.43	4.13
1039.59	5.88
1039.75	3.13
1039.91	5.47
1040.08	4.54
1040.24	1.34
1040.40	0.88
1040.56	2.29
1040.72	0.54
1040.89	2.22
1041.05	0.09
1041.21	-0.63
1041.37	0.22
1041.53	-1.97
1041.69	-0.93
1041.86	-1.45
1042.02	-3.13
1042.18	-2.29
1042.34	-1.82
1042.50	-1.01
1042.66	-2.55
1042.83	-2.29
1042.99	-3.30
1043.15	-3.22
1043.31	0.20
1043.47	-1.49
1043.63	-1.69
1043.79	1.55
1043.96	1.58
1044.12	2.33
1044.28	1.90
1044.44	-1.32
1044.60	-0.54
1044.76	1.58
1044.92	1.75
1045.09	0.15
1045.25	1.51
1045.41	5.51
1045.57	5.34
1045.73	2.29
1045.89	-0.91
1046.05	-1.75
1046.21	20.89
1046.38	-9.63
1046.54	-16.59
1046.70	-11.88
1046.86	0.82
>>>>>End Processed Spectral Data<<<<<
