SpectraSuite Data File
++++++++++++++++++++++++++++++++++++
Date: Mon May 06 13:53:34 CDT 2013
User: Students
Dark Spectrum Present: Yes
Reference Spectrum Present: Yes
Number of Sampled Component Spectra: 1
Spectrometers: USB4H00887
Integration Time (usec): 100000 (USB4H00887)
Spectra Averaged: 10 (USB4H00887)
Boxcar Smoothing: 5 (USB4H00887)
Correct for Electrical Dark: No (USB4H00887)
Strobe/Lamp Enabled: No (USB4H00887)
Correct for Detector Non-linearity: No (USB4H00887)
Correct for Stray Light: No (USB4H00887)
Number of Pixels in Processed Spectrum: 3648
>>>>>Begin Processed Spectral Data<<<<<
345.83	-2.05
346.05	-2.05
346.26	-2.05
346.48	-17.41
346.70	-14.13
346.92	-5.18
347.14	-7.82
347.35	-7.02
347.57	-8.64
347.79	-7.48
348.01	-5.68
348.23	-2.87
348.44	-4.65
348.66	-5.90
348.88	-5.83
349.10	-4.38
349.32	-1.49
349.53	2.07
349.75	2.51
349.97	4.67
350.19	6.44
350.41	4.73
350.62	2.59
350.84	3.69
351.06	3.24
351.28	3.59
351.50	3.91
351.71	2.29
351.93	2.35
352.15	3.09
352.37	4.92
352.58	5.44
352.80	7.09
353.02	10.30
353.24	10.00
353.46	8.69
353.67	8.12
353.89	6.57
354.11	7.58
354.33	5.98
354.54	4.52
354.76	2.07
354.98	0.02
355.20	-2.49
355.41	-4.45
355.63	-1.12
355.85	1.64
356.07	-0.37
356.28	-1.23
356.50	-1.51
356.72	-0.89
356.94	0.41
357.15	2.07
357.37	2.85
357.59	7.93
357.81	6.37
358.02	1.08
358.24	2.72
358.46	4.86
358.68	7.78
358.89	8.01
359.11	8.38
359.33	11.32
359.55	11.06
359.76	10.18
359.98	9.01
360.20	10.07
360.42	11.95
360.63	7.95
360.85	6.42
361.07	4.43
361.29	2.12
361.50	1.81
361.72	-4.23
361.94	-6.59
362.15	-6.72
362.37	-5.66
362.59	-3.84
362.81	-0.80
363.02	1.51
363.24	1.88
363.46	0.11
363.68	-1.75
363.89	1.19
364.11	4.45
364.33	6.50
364.54	6.03
364.76	4.30
364.98	4.08
365.20	1.49
365.41	-0.78
365.63	-0.91
365.85	-0.54
366.06	2.09
366.28	-1.28
366.50	-3.30
366.71	-1.77
366.93	-0.02
367.15	0.41
367.37	-1.06
367.58	1.10
367.80	2.10
368.02	3.20
368.23	5.27
368.45	4.38
368.67	6.03
368.88	6.52
369.10	3.93
369.32	5.77
369.53	5.40
369.75	7.97
369.97	5.08
370.19	5.47
370.40	6.83
370.62	8.71
370.84	9.83
371.05	9.05
371.27	8.64
371.49	7.06
371.70	2.92
371.92	2.94
372.14	-0.19
372.35	2.83
372.57	5.57
372.79	4.62
373.00	5.42
373.22	5.25
373.44	2.89
373.65	3.61
373.87	3.82
374.09	4.78
374.30	3.41
374.52	3.84
374.74	0.76
374.95	-3.28
375.17	-4.10
375.39	-4.73
375.60	-6.70
375.82	-5.64
376.04	-4.06
376.25	-4.28
376.47	-3.00
376.68	-6.48
376.90	-5.70
377.12	-7.22
377.33	-8.12
377.55	-8.17
377.77	-8.86
377.98	-8.86
378.20	-6.57
378.42	-6.11
378.63	-0.60
378.85	0.50
379.07	4.21
379.28	4.17
379.50	7.22
379.71	10.09
379.93	11.80
380.15	9.76
380.36	11.21
380.58	9.85
380.80	8.71
381.01	4.77
381.23	2.98
381.44	3.13
381.66	2.79
381.88	1.10
382.09	1.73
382.31	1.88
382.53	1.62
382.74	2.25
382.96	4.23
383.17	1.79
383.39	2.51
383.61	3.97
383.82	3.30
384.04	3.93
384.25	5.81
384.47	4.99
384.69	0.80
384.90	2.53
385.12	3.02
385.33	1.23
385.55	1.60
385.77	0.97
385.98	-1.36
386.20	-2.22
386.41	-2.18
386.63	-2.49
386.85	-4.08
387.06	-4.90
387.28	-8.51
387.49	-9.18
387.71	-8.73
387.93	-8.77
388.14	-7.52
388.36	-8.73
388.57	-6.31
388.79	-7.06
389.01	-7.50
389.22	-9.40
389.44	-3.07
389.65	1.60
389.87	2.51
390.08	2.77
390.30	3.33
390.52	1.99
390.73	5.25
390.95	5.36
391.16	4.28
391.38	3.26
391.59	5.51
391.81	1.66
392.03	-0.20
392.24	-0.82
392.46	-2.76
392.67	-1.73
392.89	0.52
393.10	-1.55
393.32	-3.37
393.53	-4.08
393.75	-0.84
393.97	-0.04
394.18	0.56
394.40	-0.17
394.61	-0.39
394.83	0.19
395.04	-1.23
395.26	-2.85
395.47	-0.97
395.69	1.08
395.91	-0.13
396.12	-0.74
396.34	-0.26
396.55	0.30
396.77	-0.04
396.98	1.94
397.20	1.55
397.41	3.35
397.63	1.34
397.84	-1.51
398.06	-3.02
398.27	1.19
398.49	-0.30
398.71	-1.36
398.92	-0.04
399.14	2.35
399.35	-1.68
399.57	-4.95
399.78	-7.61
400.00	-6.57
400.21	-7.26
400.43	-8.51
400.64	-8.94
400.86	-9.63
401.07	-5.66
401.29	-7.32
401.50	-8.97
401.72	-8.60
401.93	-3.15
402.15	-2.89
402.36	-2.40
402.58	2.79
402.79	3.65
403.01	3.07
403.22	5.18
403.44	2.29
403.65	4.24
403.87	7.61
404.08	13.72
404.30	10.15
404.51	12.12
404.73	14.60
404.94	9.36
405.16	8.49
405.37	9.68
405.59	9.64
405.80	8.30
406.02	5.77
406.23	3.67
406.45	-3.31
406.66	-2.07
406.88	-4.47
407.09	-6.33
407.31	-3.65
407.52	-3.82
407.74	-3.93
407.95	-3.17
408.17	-2.70
408.38	-0.93
408.60	-0.76
408.81	3.02
409.03	5.18
409.24	4.73
409.45	5.38
409.67	3.35
409.88	7.26
410.10	3.87
410.31	3.28
410.53	1.43
410.74	-1.79
410.96	-4.30
411.17	-6.70
411.39	-7.50
411.60	-6.11
411.82	-7.00
412.03	-4.30
412.24	-6.05
412.46	-4.34
412.67	-7.52
412.89	-4.32
413.10	-4.06
413.32	-1.17
413.53	-0.58
413.75	-4.41
413.96	-4.88
414.17	-3.61
414.39	-3.03
414.60	-4.36
414.82	-5.10
415.03	-2.35
415.25	-2.81
415.46	2.40
415.68	0.65
415.89	6.91
416.10	10.07
416.32	12.98
416.53	13.37
416.75	12.57
416.96	10.87
417.18	10.91
417.39	10.28
417.60	11.90
417.82	6.35
418.03	6.53
418.25	2.70
418.46	4.88
418.67	2.90
418.89	2.01
419.10	2.31
419.32	5.03
419.53	4.43
419.75	3.72
419.96	0.69
420.17	3.28
420.39	2.74
420.60	0.13
420.82	-2.03
421.03	-1.88
421.24	-6.29
421.46	-7.61
421.67	-7.95
421.89	-5.34
422.10	-6.35
422.31	-5.06
422.53	-7.00
422.74	-3.43
422.96	-1.60
423.17	-1.73
423.38	-0.63
423.60	2.18
423.81	3.44
424.03	5.16
424.24	4.82
424.45	3.84
424.67	3.76
424.88	6.85
425.09	7.56
425.31	6.07
425.52	4.56
425.74	1.04
425.95	2.74
426.16	2.23
426.38	-1.06
426.59	-2.38
426.80	0.02
427.02	0.63
427.23	-0.99
427.45	-2.83
427.66	-0.06
427.87	1.30
428.09	5.98
428.30	7.73
428.51	8.43
428.73	8.01
428.94	6.85
429.15	5.88
429.37	4.97
429.58	5.62
429.79	4.95
430.01	2.25
430.22	0.99
430.44	-1.69
430.65	-5.31
430.86	-7.39
431.08	-4.75
431.29	-1.19
431.50	-1.01
431.72	-0.06
431.93	2.49
432.14	3.46
432.36	5.19
432.57	8.28
432.78	8.43
433.00	5.96
433.21	7.97
433.42	8.17
433.64	6.87
433.85	7.07
434.06	5.98
434.28	0.15
434.49	-2.66
434.70	-2.89
434.92	-1.95
435.13	-1.43
435.34	2.98
435.56	-1.53
435.77	-3.07
435.98	-1.95
436.20	-1.34
436.41	-1.38
436.62	-0.58
436.83	-2.20
437.05	-2.92
437.26	-1.95
437.47	-3.72
437.69	-4.00
437.90	-1.41
438.11	0.30
438.33	-3.70
438.54	-3.97
438.75	-3.30
438.97	-1.82
439.18	2.76
439.39	2.51
439.60	-2.16
439.82	0.04
440.03	-1.15
440.24	0.06
440.46	-1.81
440.67	0.97
440.88	2.01
441.10	1.95
441.31	0.95
441.52	-2.03
441.73	-3.03
441.95	2.01
442.16	2.16
442.37	0.00
442.58	2.61
442.80	-0.43
443.01	0.19
443.22	2.57
443.44	2.74
443.65	4.78
443.86	8.12
444.07	9.74
444.29	4.36
444.50	2.33
444.71	6.07
444.92	1.84
445.14	5.57
445.35	2.85
445.56	-1.47
445.78	-3.59
445.99	-7.00
446.20	-8.08
446.41	-8.92
446.63	-4.69
446.84	-3.76
447.05	-7.58
447.26	-5.75
447.48	-3.63
447.69	-3.50
447.90	-1.73
448.11	-0.97
448.33	1.94
448.54	-0.37
448.75	-2.64
448.96	-5.16
449.18	-4.00
449.39	-0.34
449.60	-0.54
449.81	-3.13
450.03	-0.45
450.24	-1.49
450.45	-1.86
450.66	-3.98
450.87	-4.24
451.09	-1.58
451.30	-0.65
451.51	-0.95
451.72	-1.17
451.94	-3.95
452.15	-3.33
452.36	-5.55
452.57	-6.05
452.78	-7.39
453.00	-6.93
453.21	-5.81
453.42	-5.19
453.63	-4.78
453.85	-5.57
454.06	-7.07
454.27	-4.26
454.48	-4.88
454.69	-5.27
454.91	-4.06
455.12	-0.63
455.33	-1.25
455.54	0.26
455.75	0.15
455.97	-2.29
456.18	-2.76
456.39	-2.90
456.60	-3.15
456.81	-0.06
457.03	4.00
457.24	4.10
457.45	5.32
457.66	7.75
457.87	7.02
458.09	7.37
458.30	8.21
458.51	7.26
458.72	5.59
458.93	4.21
459.15	1.69
459.36	1.60
459.57	-0.09
459.78	-4.11
459.99	-6.68
460.20	-7.02
460.42	-8.12
460.63	-6.52
460.84	-4.56
461.05	-1.55
461.26	-2.36
461.47	-0.37
461.69	-3.20
461.90	-2.57
462.11	-2.57
462.32	-1.58
462.53	-1.40
462.74	0.24
462.96	-1.27
463.17	-0.34
463.38	-3.17
463.59	-1.38
463.80	-4.62
464.01	-3.09
464.23	-4.00
464.44	-4.36
464.65	-2.85
464.86	-2.09
465.07	-3.78
465.28	-3.97
465.49	-5.79
465.71	-5.25
465.92	-3.54
466.13	-3.74
466.34	-6.42
466.55	-7.06
466.76	-6.33
466.97	-5.06
467.19	-4.88
467.40	-3.17
467.61	-3.95
467.82	-1.23
468.03	1.95
468.24	0.20
468.45	2.10
468.66	5.23
468.88	8.92
469.09	11.56
469.30	11.65
469.51	9.14
469.72	5.10
469.93	7.71
470.14	4.28
470.35	1.15
470.57	-2.18
470.78	-1.86
470.99	-1.68
471.20	-2.03
471.41	-6.42
471.62	-8.84
471.83	-7.65
472.04	-7.19
472.25	-8.49
472.47	-8.88
472.68	-6.76
472.89	-4.71
473.10	-5.16
473.31	-5.36
473.52	-6.74
473.73	-2.70
473.94	-1.34
474.15	-3.59
474.36	-1.27
474.57	0.32
474.79	5.16
475.00	5.12
475.21	4.90
475.42	4.38
475.63	3.17
475.84	4.24
476.05	4.06
476.26	1.38
476.47	2.79
476.68	1.01
476.89	1.77
477.10	-0.39
477.32	-0.30
477.53	1.92
477.74	0.78
477.95	-2.38
478.16	-2.64
478.37	-1.64
478.58	1.66
478.79	1.68
479.00	2.44
479.21	-1.90
479.42	-4.88
479.63	-5.40
479.84	-6.11
480.05	-6.70
480.26	-2.22
480.47	-2.35
480.69	-3.48
480.90	-7.11
481.11	-5.64
481.32	-4.02
481.53	-3.13
481.74	-1.99
481.95	-2.70
482.16	-1.97
482.37	0.20
482.58	-1.30
482.79	-1.92
483.00	1.62
483.21	7.39
483.42	10.33
483.63	10.69
483.84	10.54
484.05	12.86
484.26	13.74
484.47	14.58
484.68	13.24
484.89	13.22
485.10	12.47
485.31	10.00
485.52	6.61
485.73	2.57
485.94	2.29
486.15	2.89
486.37	4.24
486.58	4.71
486.79	3.78
487.00	4.04
487.21	5.27
487.42	9.33
487.63	6.74
487.84	8.04
488.05	8.45
488.26	7.09
488.47	7.07
488.68	6.13
488.89	5.90
489.10	6.57
489.31	10.44
489.52	9.83
489.73	8.58
489.94	10.17
490.15	9.79
490.36	11.04
490.57	10.61
490.78	10.48
490.99	7.22
491.20	7.15
491.41	4.80
491.62	-0.28
491.83	-1.34
492.04	-2.55
492.25	-1.28
492.45	-1.97
492.66	-0.54
492.87	1.32
493.08	2.20
493.29	3.44
493.50	3.18
493.71	5.83
493.92	10.82
494.13	12.33
494.34	12.66
494.55	10.74
494.76	11.11
494.97	8.34
495.18	8.94
495.39	6.37
495.60	5.68
495.81	6.11
496.02	3.35
496.23	-0.69
496.44	1.12
496.65	0.19
496.86	0.69
497.07	-0.71
497.28	-0.91
497.49	-1.73
497.70	2.33
497.91	3.41
498.12	2.33
498.32	6.57
498.53	10.69
498.74	8.25
498.95	9.09
499.16	13.55
499.37	15.66
499.58	19.64
499.79	18.97
500.00	18.10
500.21	17.89
500.42	18.15
500.63	17.37
500.84	14.45
501.05	15.42
501.26	15.88
501.46	14.19
501.67	14.84
501.88	11.88
502.09	15.73
502.30	14.58
502.51	15.45
502.72	15.94
502.93	14.91
503.14	14.91
503.35	13.14
503.56	11.17
503.77	9.35
503.97	10.61
504.18	11.51
504.39	8.56
504.60	9.92
504.81	10.74
505.02	11.67
505.23	8.42
505.44	9.94
505.65	12.05
505.86	11.60
506.07	9.89
506.27	7.84
506.48	8.45
506.69	9.46
506.90	9.12
507.11	8.88
507.32	11.28
507.53	17.22
507.74	17.67
507.95	15.84
508.15	19.96
508.36	20.42
508.57	24.71
508.78	25.67
508.99	25.28
509.20	25.12
509.41	25.06
509.62	22.29
509.82	19.31
510.03	17.84
510.24	20.13
510.45	19.73
510.66	23.50
510.87	19.25
511.08	15.90
511.29	17.52
511.49	20.95
511.70	23.31
511.91	27.95
512.12	29.99
512.33	32.10
512.54	31.04
512.75	30.12
512.95	30.83
513.16	31.58
513.37	32.90
513.58	30.70
513.79	32.17
514.00	33.23
514.20	30.12
514.41	28.21
514.62	28.39
514.83	29.21
515.04	33.27
515.25	30.65
515.46	34.74
515.66	37.61
515.87	41.85
516.08	40.66
516.29	39.99
516.50	39.82
516.71	45.58
516.91	48.54
517.12	49.93
517.33	46.99
517.54	50.06
517.75	46.53
517.95	46.40
518.16	45.00
518.37	46.49
518.58	46.97
518.79	49.90
519.00	47.72
519.20	47.23
519.41	44.48
519.62	45.15
519.83	46.58
520.04	47.35
520.24	47.31
520.45	48.74
520.66	46.23
520.87	46.10
521.08	44.33
521.28	44.03
521.49	42.86
521.70	48.39
521.91	50.68
522.12	49.54
522.32	50.04
522.53	52.67
522.74	51.93
522.95	54.10
523.16	55.50
523.36	56.32
523.57	55.03
523.78	56.41
523.99	58.55
524.20	58.13
524.40	58.59
524.61	59.56
524.82	61.64
525.03	63.86
525.23	66.17
525.44	68.03
525.65	72.22
525.86	73.60
526.06	76.56
526.27	74.99
526.48	74.68
526.69	74.08
526.90	77.79
527.10	74.97
527.31	74.60
527.52	74.92
527.73	71.94
527.93	70.82
528.14	74.42
528.35	71.19
528.56	74.08
528.76	79.72
528.97	81.12
529.18	79.16
529.39	80.67
529.59	81.43
529.80	80.41
530.01	82.91
530.22	86.22
530.42	84.13
530.63	87.22
530.84	84.90
531.05	83.84
531.25	82.79
531.46	84.17
531.67	84.84
531.88	84.86
532.08	83.59
532.29	85.70
532.50	86.07
532.70	92.14
532.91	90.63
533.12	92.29
533.33	90.15
533.53	92.59
533.74	93.18
533.95	96.63
534.15	98.99
534.36	102.01
534.57	102.64
534.78	100.18
534.98	97.91
535.19	100.46
535.40	102.12
535.60	104.65
535.81	108.49
536.02	109.42
536.23	107.44
536.43	109.62
536.64	111.39
536.85	112.14
537.05	117.70
537.26	119.12
537.47	122.58
537.67	121.97
537.88	122.00
538.09	121.46
538.30	126.32
538.50	126.88
538.71	126.04
538.92	128.95
539.12	129.17
539.33	128.37
539.54	128.67
539.74	128.65
539.95	128.31
540.16	132.15
540.36	134.81
540.57	133.32
540.78	137.25
540.98	139.80
541.19	141.09
541.40	144.75
541.60	147.27
541.81	149.58
542.02	152.03
542.22	157.47
542.43	159.24
542.64	159.29
542.84	161.34
543.05	163.32
543.26	164.34
543.46	163.93
543.67	165.18
543.88	162.20
544.08	165.76
544.29	164.53
544.50	163.48
544.70	163.39
544.91	167.97
545.12	168.49
545.32	168.92
545.53	172.46
545.74	175.98
545.94	178.45
546.15	182.86
546.35	183.00
546.56	187.61
546.77	192.81
546.97	195.51
547.18	196.18
547.39	197.50
547.59	201.86
547.80	200.98
548.01	204.00
548.21	206.64
548.42	209.95
548.62	210.94
548.83	213.62
549.04	213.77
549.24	215.61
549.45	214.59
549.65	219.00
549.86	219.37
550.07	225.52
550.27	224.57
550.48	224.72
550.69	228.16
550.89	231.31
551.10	234.05
551.30	237.90
551.51	241.19
551.72	247.26
551.92	249.31
552.13	251.73
552.33	252.85
552.54	256.31
552.75	258.04
552.95	259.29
553.16	264.30
553.36	263.16
553.57	266.68
553.78	267.95
553.98	271.10
554.19	275.15
554.39	278.37
554.60	282.10
554.80	282.88
555.01	288.74
555.22	291.93
555.42	293.19
555.63	297.16
555.83	298.84
556.04	306.62
556.25	308.89
556.45	309.08
556.66	312.59
556.86	313.56
557.07	322.05
557.27	323.78
557.48	325.79
557.68	328.75
557.89	333.24
558.10	340.15
558.30	340.93
558.51	346.24
558.71	351.43
558.92	357.46
559.12	360.72
559.33	364.93
559.54	368.15
559.74	374.39
559.95	378.17
560.15	381.96
560.36	383.31
560.56	387.94
560.77	393.04
560.97	397.05
561.18	399.47
561.38	405.72
561.59	410.56
561.79	413.34
562.00	414.68
562.21	416.97
562.41	422.91
562.62	427.09
562.82	429.09
563.03	428.44
563.23	433.70
563.44	434.09
563.64	438.45
563.85	437.33
564.05	441.45
564.26	445.94
564.46	450.07
564.67	455.28
564.87	456.29
565.08	461.05
565.28	467.12
565.49	469.75
565.69	475.84
565.90	479.86
566.10	484.62
566.31	492.78
566.51	496.99
566.72	505.55
566.92	506.43
567.13	509.96
567.33	512.10
567.54	515.46
567.74	520.02
567.95	522.46
568.15	523.65
568.36	529.18
568.56	530.46
568.77	533.61
568.97	534.80
569.18	541.76
569.38	549.08
569.59	551.54
569.79	551.95
570.00	553.12
570.20	556.41
570.41	559.10
570.61	563.04
570.82	563.81
571.02	567.01
571.23	565.82
571.43	564.87
571.64	564.49
571.84	566.28
572.05	569.30
572.25	574.90
572.45	576.50
572.66	579.44
572.86	582.63
573.07	585.14
573.27	588.18
573.48	594.21
573.68	592.50
573.89	595.44
574.09	600.86
574.30	604.28
574.50	603.61
574.70	604.63
574.91	605.86
575.11	603.16
575.32	605.17
575.52	605.85
575.73	605.38
575.93	608.64
576.14	607.32
576.34	611.00
576.54	614.06
576.75	616.61
576.95	617.65
577.16	620.07
577.36	621.69
577.57	621.13
577.77	618.34
577.97	621.99
578.18	621.04
578.38	623.70
578.59	617.00
578.79	612.68
579.00	611.37
579.20	610.03
579.40	606.70
579.61	603.26
579.81	600.71
580.02	598.88
580.22	595.49
580.42	594.45
580.63	586.56
580.83	582.81
581.04	580.12
581.24	575.93
581.45	574.21
581.65	568.55
581.85	568.16
582.06	562.80
582.26	556.88
582.47	552.37
582.67	550.16
582.87	549.97
583.08	548.22
583.28	544.83
583.48	538.86
583.69	534.50
583.89	532.19
584.10	525.23
584.30	521.84
584.50	522.03
584.71	514.65
584.91	510.91
585.12	509.55
585.32	505.51
585.52	500.62
585.73	500.19
585.93	493.56
586.13	490.73
586.34	485.15
586.54	482.13
586.75	473.83
586.95	470.49
587.15	459.88
587.36	453.33
587.56	448.86
587.76	443.94
587.97	436.12
588.17	431.64
588.37	422.87
588.58	421.49
588.78	416.72
588.98	413.63
589.19	411.05
589.39	409.24
589.60	403.65
589.80	400.84
590.00	397.53
590.21	393.47
590.41	390.44
590.61	388.48
590.82	380.23
591.02	375.69
591.22	370.63
591.43	363.59
591.63	359.20
591.83	354.21
592.04	348.45
592.24	342.70
592.44	335.33
592.65	327.45
592.85	323.13
593.05	320.49
593.26	315.82
593.46	311.83
593.66	307.03
593.86	303.29
594.07	299.71
594.27	295.76
594.47	305.76
594.68	303.90
594.88	300.29
595.08	295.26
595.29	289.68
595.49	284.78
595.69	281.52
595.90	279.94
596.10	274.73
596.30	269.81
596.50	264.78
596.71	246.31
596.91	243.15
597.11	242.91
597.32	241.44
597.52	238.40
597.72	237.53
597.93	236.09
598.13	232.30
598.33	232.30
598.53	227.14
598.74	224.77
598.94	223.21
599.14	220.99
599.35	218.07
599.55	214.79
599.75	214.61
599.95	209.64
600.16	204.15
600.36	199.84
600.56	194.46
600.76	193.91
600.97	191.52
601.17	186.63
601.37	179.38
601.58	176.55
601.78	171.40
601.98	167.04
602.18	166.24
602.39	162.83
602.59	160.26
602.79	156.00
602.99	150.84
603.20	145.70
603.40	143.02
603.60	143.02
603.80	139.06
604.01	138.54
604.21	132.93
604.41	127.85
604.61	125.50
604.82	122.69
605.02	121.20
605.22	121.89
605.42	119.38
605.62	119.40
605.83	116.94
606.03	114.93
606.23	111.50
606.43	111.84
606.64	111.69
606.84	112.36
607.04	109.99
607.24	110.29
607.45	109.83
607.65	109.53
607.85	107.41
608.05	110.03
608.25	111.60
608.46	112.23
608.66	114.00
608.86	114.57
609.06	112.82
609.26	112.62
609.47	111.32
609.67	112.32
609.87	108.00
610.07	106.33
610.28	103.33
610.48	99.07
610.68	98.41
610.88	93.15
611.08	91.25
611.29	88.44
611.49	88.23
611.69	85.85
611.89	80.47
612.09	82.22
612.29	82.37
612.50	78.77
612.70	79.83
612.90	78.03
613.10	79.68
613.30	77.67
613.51	80.69
613.71	77.17
613.91	74.27
614.11	72.13
614.31	71.31
614.51	68.03
614.72	66.02
614.92	65.81
615.12	62.78
615.32	61.89
615.52	59.89
615.72	55.74
615.93	55.00
616.13	54.70
616.33	56.17
616.53	52.65
616.73	52.48
616.93	51.20
617.14	47.51
617.34	48.29
617.54	46.79
617.74	44.81
617.94	43.85
618.14	45.54
618.34	43.42
618.55	43.40
618.75	43.71
618.95	43.71
619.15	43.32
619.35	43.73
619.55	43.17
619.75	47.35
619.96	49.95
620.16	50.51
620.36	48.57
620.56	49.99
620.76	48.16
620.96	48.95
621.16	49.50
621.36	50.90
621.57	50.72
621.77	51.87
621.97	45.33
622.17	42.23
622.37	43.44
622.57	46.34
622.77	48.43
622.97	45.99
623.18	47.18
623.38	46.12
623.58	48.50
623.78	46.36
623.98	46.40
624.18	47.87
624.38	49.78
624.58	46.12
624.78	43.27
624.98	40.36
625.19	41.65
625.39	40.68
625.59	38.89
625.79	39.49
625.99	41.61
626.19	39.06
626.39	35.43
626.59	30.79
626.79	34.01
626.99	33.79
627.19	35.75
627.40	38.20
627.60	36.25
627.80	36.84
628.00	33.49
628.20	34.09
628.40	35.37
628.60	35.71
628.80	39.54
629.00	40.31
629.20	40.23
629.40	39.73
629.60	36.30
629.80	38.35
630.00	42.06
630.20	40.81
630.41	40.21
630.61	38.74
630.81	41.39
631.01	45.04
631.21	45.61
631.41	46.00
631.61	46.54
631.81	45.61
632.01	45.54
632.21	42.93
632.41	44.70
632.61	42.19
632.81	40.96
633.01	42.75
633.21	37.16
633.41	35.06
633.61	36.98
633.81	36.21
634.01	37.53
634.21	36.32
634.41	34.03
634.61	29.97
634.81	30.11
635.01	30.57
635.22	28.13
635.42	28.89
635.62	30.29
635.82	25.93
636.02	28.15
636.22	30.40
636.42	32.30
636.62	33.70
636.82	36.55
637.02	35.73
637.22	35.67
637.42	35.49
637.62	36.06
637.82	30.55
638.02	33.47
638.22	31.33
638.42	29.42
638.62	27.65
638.82	30.63
639.02	32.47
639.22	34.00
639.42	35.09
639.62	36.17
639.82	34.83
640.02	36.10
640.22	32.92
640.42	31.24
640.62	32.71
640.82	32.69
641.02	28.24
641.22	26.94
641.42	26.92
641.61	28.82
641.81	29.60
642.01	31.41
642.21	32.08
642.41	31.74
642.61	33.57
642.81	35.37
643.01	34.69
643.21	35.63
643.41	36.84
643.61	36.81
643.81	34.28
644.01	30.40
644.21	32.64
644.41	31.30
644.61	34.22
644.81	33.20
645.01	29.01
645.21	31.22
645.41	30.14
645.61	28.82
645.81	29.92
646.01	29.12
646.21	33.92
646.40	30.79
646.60	33.14
646.80	32.92
647.00	33.23
647.20	30.53
647.40	30.48
647.60	28.91
647.80	23.76
648.00	24.84
648.20	25.17
648.40	22.23
648.60	21.56
648.80	21.62
649.00	21.88
649.20	20.57
649.39	25.21
649.59	23.27
649.79	24.09
649.99	28.36
650.19	27.78
650.39	28.47
650.59	26.47
650.79	27.18
650.99	24.39
651.19	20.98
651.39	21.26
651.58	20.98
651.78	22.19
651.98	23.85
652.18	22.60
652.38	21.86
652.58	23.07
652.78	24.95
652.98	25.45
653.18	27.28
653.38	28.88
653.57	27.82
653.77	27.67
653.97	24.09
654.17	22.40
654.37	26.03
654.57	24.87
654.77	22.30
654.97	22.25
655.16	22.36
655.36	23.37
655.56	23.70
655.76	26.64
655.96	28.49
656.16	29.08
656.36	30.74
656.56	27.83
656.75	29.42
656.95	29.86
657.15	29.14
657.35	26.18
657.55	24.28
657.75	23.76
657.95	22.16
658.14	17.97
658.34	20.42
658.54	19.25
658.74	18.66
658.94	18.58
659.14	18.47
659.34	22.60
659.53	24.00
659.73	25.77
659.93	27.82
660.13	27.70
660.33	29.36
660.53	31.46
660.72	29.45
660.92	30.94
661.12	27.82
661.32	28.91
661.52	24.89
661.72	25.62
661.91	27.33
662.11	27.65
662.31	28.28
662.51	27.80
662.71	24.22
662.90	29.03
663.10	31.84
663.30	30.35
663.50	28.73
663.70	27.26
663.90	28.58
664.09	26.94
664.29	26.03
664.49	28.78
664.69	28.99
664.89	26.18
665.08	23.83
665.28	21.76
665.48	25.28
665.68	25.53
665.88	28.26
666.07	24.78
666.27	23.35
666.47	22.40
666.67	21.65
666.87	20.72
667.06	24.48
667.26	23.81
667.46	19.88
667.66	20.74
667.85	19.23
668.05	18.17
668.25	22.45
668.45	22.12
668.65	25.90
668.84	23.92
669.04	25.34
669.24	25.75
669.44	26.87
669.63	29.49
669.83	29.92
670.03	28.99
670.23	29.77
670.42	27.67
670.62	26.92
670.82	24.26
671.02	23.22
671.22	22.84
671.41	21.71
671.61	22.40
671.81	24.95
672.01	23.09
672.20	24.11
672.40	22.68
672.60	21.58
672.80	25.97
672.99	30.48
673.19	32.34
673.39	31.67
673.58	33.88
673.78	32.10
673.98	29.12
674.18	30.79
674.37	34.39
674.57	32.99
674.77	33.53
674.97	27.96
675.16	21.63
675.36	20.29
675.56	19.98
675.75	17.63
675.95	17.04
676.15	18.00
676.35	18.52
676.54	15.51
676.74	17.76
676.94	16.18
677.13	21.19
677.33	21.02
677.53	21.88
677.73	22.79
677.92	26.33
678.12	27.67
678.32	28.06
678.51	28.78
678.71	31.78
678.91	31.13
679.11	31.99
679.30	30.66
679.50	32.02
679.70	31.69
679.89	31.43
680.09	27.07
680.29	28.02
680.48	29.51
680.68	28.00
680.88	27.07
681.07	27.03
681.27	26.90
681.47	25.10
681.66	23.22
681.86	24.65
682.06	26.92
682.25	29.49
682.45	28.32
682.65	28.13
682.84	24.63
683.04	25.51
683.24	27.74
683.43	29.71
683.63	29.38
683.83	29.34
684.02	29.23
684.22	26.49
684.42	26.40
684.61	25.93
684.81	25.64
685.01	25.62
685.20	24.30
685.40	22.71
685.60	21.65
685.79	23.16
685.99	25.69
686.19	24.59
686.38	27.28
686.58	27.35
686.77	28.67
686.97	28.13
687.17	28.75
687.36	28.21
687.56	29.53
687.76	27.24
687.95	23.33
688.15	22.17
688.34	21.71
688.54	19.46
688.74	19.14
688.93	17.97
689.13	17.33
689.33	20.74
689.52	21.97
689.72	20.72
689.91	23.44
690.11	26.23
690.31	29.40
690.50	30.16
690.70	31.86
690.89	28.19
691.09	28.26
691.29	26.70
691.48	25.75
691.68	27.83
691.87	28.86
692.07	29.21
692.27	29.16
692.46	27.98
692.66	30.44
692.85	28.99
693.05	32.73
693.25	32.28
693.44	33.01
693.64	33.92
693.83	29.60
694.03	28.41
694.22	27.80
694.42	28.28
694.62	25.58
694.81	22.64
695.01	21.56
695.20	20.14
695.40	20.39
695.59	21.49
695.79	19.72
695.99	20.54
696.18	18.17
696.38	19.44
696.57	22.16
696.77	20.20
696.96	19.29
697.16	21.91
697.36	21.39
697.55	23.53
697.75	25.82
697.94	23.85
698.14	24.00
698.33	25.06
698.53	25.23
698.72	22.12
698.92	27.07
699.11	28.63
699.31	28.89
699.51	31.32
699.70	29.21
699.90	26.07
700.09	27.96
700.29	28.08
700.48	27.22
700.68	27.39
700.87	31.41
701.07	30.57
701.26	31.04
701.46	27.59
701.65	27.13
701.85	30.53
702.04	28.65
702.24	29.47
702.43	29.06
702.63	31.97
702.82	29.97
703.02	25.00
703.21	22.55
703.41	17.15
703.60	18.15
703.80	16.96
703.99	14.08
704.19	14.19
704.38	12.27
704.58	12.16
704.77	9.50
704.97	10.59
705.16	15.27
705.36	15.23
705.55	19.70
705.75	19.87
705.94	19.21
706.14	23.61
706.33	25.77
706.53	26.12
706.72	24.31
706.92	23.83
707.11	24.63
707.31	18.92
707.50	22.34
707.70	20.31
707.89	20.83
708.09	23.92
708.28	19.31
708.48	17.74
708.67	18.17
708.86	20.41
709.06	21.95
709.25	20.80
709.45	24.09
709.64	21.21
709.84	22.34
710.03	22.30
710.23	20.33
710.42	18.36
710.62	19.40
710.81	18.38
711.00	18.90
711.20	18.08
711.39	20.13
711.59	18.19
711.78	17.48
711.98	18.71
712.17	19.87
712.37	18.02
712.56	21.62
712.75	23.48
712.95	25.25
713.14	25.99
713.34	26.98
713.53	23.55
713.73	25.04
713.92	26.96
714.11	26.08
714.31	25.71
714.50	29.10
714.70	27.68
714.89	28.24
715.08	26.55
715.28	25.62
715.47	28.58
715.67	29.73
715.86	27.93
716.06	29.04
716.25	26.33
716.44	23.20
716.64	20.87
716.83	22.36
717.03	18.58
717.22	21.50
717.41	21.39
717.61	18.69
717.80	16.10
717.99	17.07
718.19	14.39
718.38	17.87
718.58	19.83
718.77	17.24
718.96	14.71
719.16	15.96
719.35	13.63
719.55	12.94
719.74	12.66
719.93	14.34
720.13	13.18
720.32	12.34
720.51	11.79
720.71	9.42
720.90	13.70
721.10	14.99
721.29	11.62
721.48	10.30
721.68	10.84
721.87	10.13
722.06	10.41
722.26	11.38
722.45	15.43
722.64	12.96
722.84	16.25
723.03	13.85
723.22	14.95
723.42	17.17
723.61	19.55
723.80	19.05
724.00	18.51
724.19	20.01
724.38	21.32
724.58	20.27
724.77	22.79
724.96	21.37
725.16	22.32
725.35	22.92
725.54	23.14
725.74	21.71
725.93	21.80
726.12	23.91
726.32	21.80
726.51	23.53
726.70	22.90
726.90	24.45
727.09	26.68
727.28	26.64
727.48	25.51
727.67	26.87
727.86	32.34
728.06	33.01
728.25	31.46
728.44	35.37
728.64	32.88
728.83	31.87
729.02	28.36
729.21	25.39
729.41	28.28
729.60	27.05
729.79	29.25
729.99	24.37
730.18	24.63
730.37	26.98
730.56	23.70
730.76	22.88
730.95	20.74
731.14	21.89
731.34	21.80
731.53	19.47
731.72	20.14
731.91	19.60
732.11	18.41
732.30	17.78
732.49	17.13
732.69	19.77
732.88	18.60
733.07	21.89
733.26	22.29
733.46	21.45
733.65	21.22
733.84	20.59
734.03	18.92
734.23	22.75
734.42	21.50
734.61	19.88
734.80	19.29
735.00	21.17
735.19	21.26
735.38	22.08
735.57	23.96
735.77	23.01
735.96	23.35
736.15	21.89
736.34	19.05
736.54	18.97
736.73	21.84
736.92	17.54
737.11	18.15
737.31	18.15
737.50	8.45
737.69	7.02
737.88	7.65
738.07	6.61
738.27	10.07
738.46	9.87
738.65	11.38
738.84	9.36
739.04	10.17
739.23	9.23
739.42	6.42
739.61	17.98
739.80	19.44
740.00	18.19
740.19	17.93
740.38	15.15
740.57	16.37
740.76	17.71
740.96	17.69
741.15	19.79
741.34	19.47
741.53	20.61
741.72	19.01
741.92	17.93
742.11	18.84
742.30	19.16
742.49	19.05
742.68	16.18
742.88	14.19
743.07	12.64
743.26	16.14
743.45	15.47
743.64	20.54
743.84	19.08
744.03	20.31
744.22	20.81
744.41	22.42
744.60	21.02
744.79	21.91
744.99	23.53
745.18	23.76
745.37	18.30
745.56	20.42
745.75	16.68
745.94	15.90
746.14	16.01
746.33	14.78
746.52	12.60
746.71	11.23
746.90	10.31
747.09	9.12
747.28	10.72
747.48	13.29
747.67	13.37
747.86	11.08
748.05	12.53
748.24	11.99
748.43	11.95
748.62	13.09
748.82	12.36
749.01	13.96
749.20	15.08
749.39	14.08
749.58	13.14
749.77	9.53
749.96	12.25
750.16	12.18
750.35	12.08
750.54	14.62
750.73	15.68
750.92	20.93
751.11	19.34
751.30	17.05
751.49	16.79
751.68	14.89
751.88	20.29
752.07	21.56
752.26	21.02
752.45	22.56
752.64	19.66
752.83	20.52
753.02	17.89
753.21	18.39
753.40	19.06
753.60	21.21
753.79	20.33
753.98	17.04
754.17	14.35
754.36	15.02
754.55	13.98
754.74	14.91
754.93	14.97
755.12	13.96
755.31	13.05
755.50	12.06
755.70	11.77
755.89	18.49
756.08	16.85
756.27	15.15
756.46	15.21
756.65	15.32
756.84	13.35
757.03	9.74
757.22	12.44
757.41	16.09
757.60	17.65
757.79	16.79
757.98	12.55
758.17	14.93
758.36	15.88
758.56	13.50
758.75	10.87
758.94	13.89
759.13	16.22
759.32	14.08
759.51	14.80
759.70	12.16
759.89	11.47
760.08	15.12
760.27	14.30
760.46	13.44
760.65	13.31
760.84	15.88
761.03	14.69
761.22	15.60
761.41	15.27
761.60	14.84
761.79	17.22
761.98	18.17
762.17	15.84
762.36	16.05
762.55	16.74
762.74	18.30
762.93	20.26
763.12	18.62
763.31	18.13
763.50	22.21
763.69	20.80
763.88	20.01
764.07	20.37
764.26	16.68
764.45	15.08
764.64	14.04
764.83	13.31
765.02	11.73
765.21	13.26
765.40	12.62
765.59	9.25
765.78	8.12
765.97	8.36
766.16	8.36
766.35	9.94
766.54	12.59
766.73	14.82
766.92	14.50
767.11	16.01
767.30	16.98
767.49	14.41
767.68	15.99
767.87	18.45
768.06	18.62
768.25	19.01
768.44	18.52
768.63	20.29
768.82	20.14
769.01	23.24
769.20	21.89
769.39	20.65
769.58	22.38
769.77	24.28
769.96	22.47
770.15	22.96
770.34	22.34
770.53	20.01
770.72	16.23
770.91	16.05
771.10	12.90
771.29	10.52
771.47	8.75
771.66	8.90
771.85	6.78
772.04	7.52
772.23	7.61
772.42	5.47
772.61	9.07
772.80	9.23
772.99	8.10
773.18	5.57
773.37	8.27
773.56	8.28
773.75	9.01
773.94	9.12
774.13	6.67
774.31	7.17
774.50	7.82
774.69	7.37
774.88	7.54
775.07	9.76
775.26	13.50
775.45	13.16
775.64	14.00
775.83	14.91
776.02	14.73
776.21	18.97
776.40	19.20
776.58	18.21
776.77	18.38
776.96	20.46
777.15	20.18
777.34	17.24
777.53	15.36
777.72	18.80
777.91	17.04
778.10	13.87
778.28	8.75
778.47	7.04
778.66	10.97
778.85	11.62
779.04	8.34
779.23	5.12
779.42	6.27
779.61	7.02
779.79	7.48
779.98	7.13
780.17	7.04
780.36	8.73
780.55	10.33
780.74	9.03
780.93	8.79
781.12	11.47
781.30	14.89
781.49	17.59
781.68	17.09
781.87	14.89
782.06	15.77
782.25	20.63
782.44	22.25
782.62	21.02
782.81	18.45
783.00	17.11
783.19	16.42
783.38	18.45
783.57	14.93
783.75	14.52
783.94	15.38
784.13	15.38
784.32	14.52
784.51	14.54
784.70	13.67
784.88	13.91
785.07	14.50
785.26	13.68
785.45	8.66
785.64	12.53
785.83	12.10
786.01	10.35
786.20	11.28
786.39	9.36
786.58	9.51
786.77	8.32
786.95	7.99
787.14	9.03
787.33	11.64
787.52	11.15
787.71	9.79
787.90	11.28
788.08	12.23
788.27	10.39
788.46	12.05
788.65	10.33
788.84	10.39
789.02	11.00
789.21	9.20
789.40	9.03
789.59	13.18
789.77	13.78
789.96	13.07
790.15	12.44
790.34	11.23
790.53	12.10
790.71	11.84
790.90	14.13
791.09	17.97
791.28	18.75
791.46	15.29
791.65	12.73
791.84	11.19
792.03	9.61
792.22	9.87
792.40	13.93
792.59	12.92
792.78	15.51
792.97	17.11
793.15	12.27
793.34	9.14
793.53	10.18
793.72	9.83
793.90	9.29
794.09	12.34
794.28	12.01
794.47	8.96
794.65	7.24
794.84	8.08
795.03	6.80
795.22	8.12
795.40	13.31
795.59	13.87
795.78	15.92
795.97	20.72
796.15	21.84
796.34	19.40
796.53	22.34
796.71	19.87
796.90	16.22
797.09	16.51
797.28	14.91
797.46	16.79
797.65	16.37
797.84	15.58
798.02	12.38
798.21	12.64
798.40	15.17
798.59	13.01
798.77	20.24
798.96	20.65
799.15	20.03
799.33	21.58
799.52	17.04
799.71	14.13
799.90	13.03
800.08	13.27
800.27	10.48
800.46	9.27
800.64	8.32
800.83	4.15
801.02	6.50
801.20	5.29
801.39	9.42
801.58	14.21
801.76	17.35
801.95	16.83
802.14	15.83
802.32	16.01
802.51	18.10
802.70	18.49
802.88	19.40
803.07	18.95
803.26	19.79
803.44	17.09
803.63	13.37
803.82	12.53
804.00	14.71
804.19	15.81
804.38	17.91
804.56	15.01
804.75	18.25
804.94	15.97
805.12	12.05
805.31	11.69
805.50	11.41
805.68	7.69
805.87	9.18
806.06	6.81
806.24	3.74
806.43	3.05
806.62	5.16
806.80	2.35
806.99	3.43
807.17	7.71
807.36	8.90
807.55	9.68
807.73	14.47
807.92	14.89
808.11	16.01
808.29	16.70
808.48	16.92
808.66	19.49
808.85	18.26
809.04	18.12
809.22	18.73
809.41	18.23
809.59	17.46
809.78	16.44
809.97	14.24
810.15	14.02
810.34	16.38
810.53	14.00
810.71	14.00
810.90	16.03
811.08	17.84
811.27	13.33
811.45	13.46
811.64	10.91
811.83	12.33
812.01	13.52
812.20	14.54
812.38	15.73
812.57	18.02
812.76	15.01
812.94	14.58
813.13	14.26
813.31	15.47
813.50	15.42
813.68	17.04
813.87	15.66
814.06	15.90
814.24	14.45
814.43	11.77
814.61	10.22
814.80	13.83
814.98	13.05
815.17	11.60
815.36	9.77
815.54	10.13
815.73	9.25
815.91	9.64
816.10	9.76
816.28	10.00
816.47	9.83
816.65	9.90
816.84	8.04
817.03	6.98
817.21	8.40
817.40	11.80
817.58	8.62
817.77	7.45
817.95	5.85
818.14	7.11
818.32	8.64
818.51	7.88
818.69	6.13
818.88	4.60
819.06	6.26
819.25	5.68
819.43	4.56
819.62	4.62
819.80	7.60
819.99	9.27
820.18	4.32
820.36	5.18
820.55	6.13
820.73	9.79
820.92	9.42
821.10	8.60
821.29	7.71
821.47	7.47
821.66	10.54
821.84	10.48
822.03	10.50
822.21	14.71
822.40	13.65
822.58	14.34
822.77	13.01
822.95	12.60
823.14	13.50
823.32	12.77
823.50	11.65
823.69	11.19
823.87	8.58
824.06	4.56
824.24	0.69
824.43	0.22
824.61	2.16
824.80	-1.41
824.98	-2.59
825.17	-2.63
825.35	-0.43
825.54	-0.91
825.72	-1.19
825.91	0.30
826.09	2.98
826.28	5.64
826.46	2.48
826.64	0.84
826.83	4.73
827.01	6.35
827.20	1.68
827.38	-0.82
827.57	0.04
827.75	-1.66
827.94	-2.29
828.12	-2.16
828.31	-4.26
828.49	-1.28
828.67	-4.23
828.86	-3.48
829.04	-3.72
829.23	2.35
829.41	7.02
829.60	8.43
829.78	10.78
829.96	12.42
830.15	12.60
830.33	13.18
830.52	11.79
830.70	13.00
830.88	14.19
831.07	16.05
831.25	11.67
831.44	7.39
831.62	7.06
831.81	5.96
831.99	5.83
832.17	8.28
832.36	8.40
832.54	10.80
832.73	11.56
832.91	6.24
833.09	4.19
833.28	5.99
833.46	9.05
833.65	9.87
833.83	8.40
834.01	8.43
834.20	6.98
834.38	9.44
834.56	7.58
834.75	8.02
834.93	9.92
835.12	10.07
835.30	9.89
835.48	4.10
835.67	5.12
835.85	5.51
836.03	3.31
836.22	2.05
836.40	1.55
836.59	0.19
836.77	-0.99
836.95	-0.32
837.14	2.46
837.32	4.02
837.50	6.48
837.69	3.11
837.87	2.98
838.05	3.97
838.24	2.53
838.42	3.31
838.60	4.69
838.79	5.40
838.97	5.05
839.15	2.09
839.34	-2.76
839.52	-1.30
839.70	-0.24
839.89	1.79
840.07	2.59
840.25	1.84
840.44	-1.97
840.62	1.47
840.80	2.07
840.99	0.41
841.17	-0.39
841.35	4.92
841.54	4.54
841.72	4.02
841.90	1.64
842.09	0.48
842.27	2.29
842.45	4.64
842.64	3.09
842.82	0.60
843.00	1.34
843.19	0.82
843.37	1.53
843.55	-0.65
843.73	-1.21
843.92	-1.97
844.10	-1.97
844.28	-4.10
844.47	-4.30
844.65	-6.40
844.83	-4.73
845.01	-1.58
845.20	2.33
845.38	-0.61
845.56	-0.41
845.75	1.40
845.93	5.42
846.11	3.87
846.29	4.54
846.48	6.11
846.66	6.11
846.84	6.85
847.02	4.39
847.21	2.25
847.39	5.10
847.57	7.02
847.76	8.23
847.94	5.59
848.12	6.33
848.30	7.89
848.49	6.87
848.67	13.31
848.85	12.44
849.03	12.72
849.22	12.46
849.40	7.63
849.58	7.75
849.76	5.05
849.95	2.77
850.13	1.10
850.31	6.16
850.49	8.38
850.67	3.46
850.86	7.50
851.04	7.47
851.22	10.76
851.40	15.38
851.59	16.25
851.77	17.33
851.95	21.15
852.13	23.01
852.31	17.43
852.50	16.46
852.68	14.80
852.86	9.92
853.04	8.01
853.23	5.29
853.41	3.98
853.59	0.76
853.77	0.88
853.95	-1.19
854.14	0.89
854.32	1.56
854.50	0.39
854.68	2.23
854.86	3.30
855.04	5.03
855.23	3.57
855.41	4.45
855.59	6.53
855.77	7.15
855.95	9.42
856.14	8.77
856.32	8.64
856.50	8.53
856.68	7.88
856.86	10.28
857.04	8.10
857.23	9.72
857.41	8.64
857.59	6.98
857.77	5.81
857.95	2.49
858.13	5.31
858.32	4.47
858.50	2.51
858.68	2.25
858.86	0.97
859.04	1.45
859.22	2.23
859.41	0.78
859.59	3.48
859.77	2.68
859.95	7.75
860.13	6.87
860.31	8.17
860.49	10.48
860.68	11.92
860.86	10.41
861.04	11.25
861.22	9.63
861.40	10.91
861.58	11.92
861.76	13.33
861.94	11.32
862.13	11.19
862.31	11.49
862.49	11.69
862.67	8.81
862.85	6.87
863.03	7.82
863.21	5.62
863.39	7.84
863.57	5.34
863.76	6.94
863.94	6.68
864.12	6.03
864.30	7.78
864.48	5.29
864.66	7.41
864.84	7.28
865.02	5.49
865.20	7.95
865.38	5.68
865.57	4.54
865.75	2.10
865.93	-0.65
866.11	-3.33
866.29	-4.56
866.47	-3.18
866.65	-3.65
866.83	1.28
867.01	1.32
867.19	-0.28
867.37	-2.07
867.55	-1.47
867.73	-0.07
867.92	3.22
868.10	5.23
868.28	5.34
868.46	3.54
868.64	2.12
868.82	-1.92
869.00	-0.78
869.18	1.45
869.36	3.26
869.54	4.24
869.72	5.72
869.90	1.27
870.08	-0.06
870.26	-2.22
870.44	-3.91
870.62	-0.80
870.80	2.72
870.98	4.15
871.16	2.77
871.34	0.89
871.53	-0.37
871.71	-5.73
871.89	-0.76
872.07	1.99
872.25	4.75
872.43	5.44
872.61	1.28
872.79	0.93
872.97	1.68
873.15	-0.02
873.33	1.14
873.51	2.07
873.69	8.19
873.87	7.24
874.05	5.16
874.23	4.30
874.41	7.02
874.59	9.81
874.77	6.80
874.95	1.56
875.13	5.98
875.31	5.49
875.49	4.71
875.67	1.51
875.85	-0.88
876.03	0.07
876.21	-1.08
876.39	-0.93
876.57	-0.50
876.75	-0.17
876.93	4.13
877.11	3.65
877.29	7.19
877.47	10.07
877.65	10.41
877.82	11.25
878.00	10.67
878.18	12.79
878.36	15.04
878.54	14.73
878.72	17.18
878.90	17.56
879.08	14.82
879.26	11.67
879.44	5.57
879.62	7.06
879.80	7.52
879.98	5.51
880.16	4.30
880.34	1.66
880.52	-1.15
880.70	-3.57
880.88	-6.11
881.06	-1.88
881.24	-2.14
881.42	3.74
881.59	2.01
881.77	3.54
881.95	3.24
882.13	0.52
882.31	4.15
882.49	5.23
882.67	7.26
882.85	7.67
883.03	8.23
883.21	9.01
883.39	8.73
883.57	7.76
883.75	6.13
883.92	6.72
884.10	9.51
884.28	6.09
884.46	4.82
884.64	3.67
884.82	7.88
885.00	5.72
885.18	5.38
885.36	1.95
885.54	1.15
885.71	-0.28
885.89	2.66
886.07	3.56
886.25	6.01
886.43	6.50
886.61	6.91
886.79	5.10
886.97	4.02
887.15	3.65
887.32	7.02
887.50	7.37
887.68	9.33
887.86	8.40
888.04	7.39
888.22	5.99
888.40	5.31
888.57	4.26
888.75	0.24
888.93	1.77
889.11	1.32
889.29	-2.53
889.47	-0.80
889.65	-1.66
889.82	-1.69
890.00	-2.77
890.18	-4.69
890.36	-4.08
890.54	-3.00
890.72	-0.61
890.90	-0.28
891.07	-1.36
891.25	1.86
891.43	1.75
891.61	2.87
891.79	5.18
891.97	2.70
892.14	1.77
892.32	2.66
892.50	3.35
892.68	3.17
892.86	-2.14
893.03	1.84
893.21	2.36
893.39	-0.48
893.57	-1.73
893.75	-5.25
893.93	-3.56
894.10	-2.16
894.28	-3.70
894.46	-3.56
894.64	-5.32
894.82	0.02
894.99	-3.70
895.17	-4.65
895.35	-1.68
895.53	0.48
895.71	0.97
895.88	0.84
896.06	-1.15
896.24	2.20
896.42	2.90
896.59	5.68
896.77	3.41
896.95	5.77
897.13	4.17
897.31	4.62
897.48	2.72
897.66	1.49
897.84	-0.54
898.02	1.04
898.19	-2.10
898.37	-6.11
898.55	-7.60
898.73	-7.39
898.91	-9.87
899.08	-9.96
899.26	-10.17
899.44	-9.81
899.62	-9.16
899.79	-5.68
899.97	-4.32
900.15	-2.72
900.33	-1.66
900.50	-1.36
900.68	-2.79
900.86	-0.17
901.04	1.47
901.21	3.76
901.39	4.77
901.57	6.27
901.74	6.93
901.92	6.76
902.10	4.65
902.28	6.14
902.45	4.28
902.63	3.22
902.81	5.06
902.99	4.00
903.16	-0.26
903.34	-2.03
903.52	-2.51
903.69	-4.52
903.87	-4.82
904.05	-3.67
904.22	-3.31
904.40	-0.93
904.58	0.50
904.76	-0.95
904.93	-1.14
905.11	1.06
905.29	4.99
905.46	4.60
905.64	6.05
905.82	5.88
905.99	4.39
906.17	3.31
906.35	5.03
906.53	5.68
906.70	2.31
906.88	4.97
907.06	3.43
907.23	0.24
907.41	-0.13
907.59	-0.41
907.76	0.60
907.94	3.41
908.12	4.00
908.29	3.43
908.47	2.61
908.65	2.40
908.82	0.78
909.00	1.69
909.18	2.01
909.35	-0.34
909.53	-2.79
909.71	-5.57
909.88	-7.43
910.06	-6.85
910.23	-6.57
910.41	-5.31
910.59	-2.81
910.76	-2.48
910.94	0.04
911.12	-1.30
911.29	0.89
911.47	1.21
911.65	0.00
911.82	-1.14
912.00	-2.44
912.17	-4.15
912.35	-4.38
912.53	-3.26
912.70	-3.84
912.88	-5.90
913.06	-2.40
913.23	-3.52
913.41	-2.16
913.58	2.77
913.76	5.99
913.94	7.24
914.11	7.65
914.29	4.56
914.46	4.82
914.64	6.78
914.82	7.75
914.99	6.18
915.17	8.02
915.34	8.56
915.52	9.96
915.70	9.03
915.87	7.54
916.05	6.13
916.22	12.33
916.40	11.43
916.57	7.78
916.75	6.98
916.93	4.93
917.10	4.86
917.28	3.44
917.45	3.17
917.63	4.56
917.80	4.38
917.98	6.31
918.16	3.03
918.33	1.62
918.51	3.97
918.68	1.90
918.86	4.00
919.03	1.43
919.21	2.51
919.39	-0.34
919.56	-1.77
919.74	-0.58
919.91	-3.02
920.09	-5.42
920.26	-6.33
920.44	-6.87
920.61	-8.06
920.79	-8.69
920.96	-6.37
921.14	-6.91
921.31	-8.81
921.49	-7.78
921.67	-7.02
921.84	-6.13
922.02	-2.44
922.19	-0.11
922.37	-0.76
922.54	1.32
922.72	-0.74
922.89	-0.99
923.07	-2.33
923.24	-0.07
923.42	-3.13
923.59	-3.61
923.77	-0.48
923.94	-1.41
924.12	-3.35
924.29	-0.43
924.47	0.45
924.64	4.11
924.82	5.49
924.99	9.16
925.17	9.96
925.34	12.59
925.52	14.15
925.69	12.57
925.87	11.54
926.04	11.25
926.22	10.85
926.39	8.49
926.57	8.79
926.74	8.77
926.91	7.22
927.09	4.06
927.26	5.85
927.44	1.84
927.61	0.07
927.79	1.88
927.96	3.44
928.14	-0.39
928.31	3.33
928.49	-0.02
928.66	-1.66
928.84	-0.37
929.01	0.30
929.18	-2.46
929.36	-2.44
929.53	-1.49
929.71	-2.57
929.88	-1.25
930.06	0.80
930.23	-1.68
930.41	-1.58
930.58	1.12
930.75	1.64
930.93	0.67
931.10	0.17
931.28	-0.30
931.45	0.26
931.63	-0.22
931.80	-1.69
931.97	-4.21
932.15	-1.92
932.32	0.73
932.50	-2.96
932.67	-2.33
932.84	-1.30
933.02	1.88
933.19	3.11
933.37	2.55
933.54	3.70
933.71	5.85
933.89	9.53
934.06	5.42
934.24	3.84
934.41	3.69
934.58	0.89
934.76	1.55
934.93	2.07
935.11	2.90
935.28	2.29
935.45	1.08
935.63	-0.09
935.80	-1.86
935.98	3.17
936.15	2.36
936.32	2.70
936.50	3.56
936.67	4.00
936.84	1.82
937.02	1.77
937.19	1.99
937.36	0.76
937.54	-1.64
937.71	-3.09
937.89	-5.86
938.06	-5.53
938.23	-5.32
938.41	-5.23
938.58	-3.43
938.75	-4.19
938.93	-3.84
939.10	-6.61
939.27	-5.16
939.45	-3.09
939.62	-2.05
939.79	-4.26
939.97	-4.21
940.14	-1.97
940.31	-3.56
940.49	-4.06
940.66	-3.07
940.83	-2.66
941.01	0.60
941.18	0.28
941.35	-0.60
941.53	1.60
941.70	5.77
941.87	5.73
942.05	4.28
942.22	3.74
942.39	1.38
942.57	2.03
942.74	2.33
942.91	2.44
943.08	4.86
943.26	4.34
943.43	3.46
943.60	3.26
943.78	5.64
943.95	5.40
944.12	7.78
944.29	9.10
944.47	6.72
944.64	5.53
944.81	4.75
944.99	2.74
945.16	1.58
945.33	0.45
945.50	-1.01
945.68	-3.63
945.85	-6.59
946.02	-9.05
946.20	-9.48
946.37	-6.50
946.54	-4.58
946.71	-4.38
946.89	-4.52
947.06	-1.47
947.23	-1.56
947.40	-2.59
947.58	-1.90
947.75	1.15
947.92	3.39
948.09	0.28
948.27	-1.97
948.44	-5.46
948.61	-4.90
948.78	-3.91
948.96	-4.52
949.13	-4.45
949.30	-2.35
949.47	-3.98
949.65	-5.79
949.82	-5.75
949.99	-0.97
950.16	-1.75
950.33	-3.03
950.51	-4.77
950.68	-4.41
950.85	-2.64
951.02	-0.37
951.20	-0.15
951.37	3.31
951.54	7.09
951.71	7.47
951.88	6.61
952.06	8.86
952.23	10.89
952.40	11.11
952.57	11.43
952.74	9.85
952.92	7.39
953.09	6.09
953.26	1.77
953.43	-0.47
953.60	-5.42
953.77	-3.50
953.95	-4.34
954.12	-4.28
954.29	-5.34
954.46	-7.21
954.63	-7.97
954.81	-7.07
954.98	-6.91
955.15	-4.60
955.32	-2.76
955.49	0.84
955.66	-0.32
955.84	-0.43
956.01	-0.02
956.18	2.49
956.35	3.35
956.52	3.54
956.69	1.75
956.87	3.30
957.04	1.32
957.21	0.15
957.38	-0.39
957.55	-0.19
957.72	-0.06
957.89	-1.08
958.07	-2.59
958.24	-2.68
958.41	-5.21
958.58	-4.51
958.75	-8.97
958.92	-7.93
959.09	-6.65
959.26	-4.71
959.44	-4.77
959.61	-7.69
959.78	-3.97
959.95	-3.24
960.12	-3.11
960.29	0.41
960.46	-0.32
960.63	3.95
960.81	2.23
960.98	-0.20
961.15	1.15
961.32	0.45
961.49	2.40
961.66	1.95
961.83	2.94
962.00	1.73
962.17	-0.91
962.34	-1.62
962.52	-2.96
962.69	-0.99
962.86	-1.53
963.03	-3.78
963.20	-4.23
963.37	-2.40
963.54	-3.93
963.71	-4.32
963.88	-5.81
964.05	-4.64
964.22	-4.47
964.39	-5.57
964.56	-4.95
964.74	-5.72
964.91	-3.35
965.08	-4.30
965.25	-5.01
965.42	-6.67
965.59	-7.37
965.76	-7.06
965.93	-5.38
966.10	-0.99
966.27	-1.97
966.44	-4.38
966.61	-0.22
966.78	-3.24
966.95	-2.81
967.12	-3.22
967.29	-0.50
967.46	1.77
967.63	3.87
967.80	2.51
967.97	2.83
968.14	5.12
968.32	5.83
968.49	4.62
968.66	5.70
968.83	5.53
969.00	6.39
969.17	4.71
969.34	1.51
969.51	-1.23
969.68	-2.59
969.85	-3.80
970.02	-5.90
970.19	-5.05
970.36	-5.27
970.53	-5.16
970.70	-4.60
970.87	-7.56
971.04	-6.81
971.21	-6.81
971.38	-4.10
971.55	-3.91
971.72	-3.00
971.89	0.09
972.06	-0.93
972.23	0.15
972.40	0.39
972.57	-0.78
972.74	1.45
972.91	2.85
973.07	2.87
973.24	0.52
973.41	1.66
973.58	-0.54
973.75	-1.95
973.92	2.76
974.09	0.04
974.26	1.21
974.43	3.17
974.60	4.02
974.77	2.10
974.94	4.28
975.11	9.64
975.28	10.59
975.45	9.96
975.62	11.36
975.79	8.38
975.96	9.85
976.13	7.97
976.30	7.50
976.47	4.41
976.64	2.03
976.80	-0.09
976.97	-5.08
977.14	-8.27
977.31	-7.91
977.48	-11.90
977.65	-10.67
977.82	-11.39
977.99	-11.80
978.16	-12.10
978.33	-9.18
978.50	-8.51
978.67	-6.42
978.83	-5.23
979.00	-2.59
979.17	-2.05
979.34	2.63
979.51	4.51
979.68	4.52
979.85	5.85
980.02	7.09
980.19	6.40
980.36	8.32
980.52	6.98
980.69	7.71
980.86	6.20
981.03	4.32
981.20	3.24
981.37	2.07
981.54	0.88
981.71	-2.40
981.88	-5.14
982.04	-4.45
982.21	-4.06
982.38	-3.74
982.55	-4.13
982.72	-0.56
982.89	-1.28
983.06	-3.07
983.22	-4.45
983.39	-1.51
983.56	1.23
983.73	0.99
983.90	-1.64
984.07	-2.96
984.24	-2.85
984.40	-3.26
984.57	-4.80
984.74	-2.05
984.91	-3.30
985.08	-2.12
985.25	-3.50
985.41	-3.89
985.58	-0.26
985.75	2.87
985.92	6.52
986.09	4.21
986.26	6.83
986.42	7.32
986.59	5.40
986.76	8.58
986.93	8.55
987.10	8.71
987.27	5.99
987.43	3.26
987.60	1.60
987.77	0.26
987.94	3.74
988.11	2.36
988.27	2.96
988.44	4.32
988.61	3.98
988.78	-0.52
988.95	0.06
989.11	1.68
989.28	0.02
989.45	-1.23
989.62	-1.23
989.79	-0.35
989.95	-1.71
990.12	-4.69
990.29	-3.11
990.46	-1.75
990.62	1.38
990.79	1.12
990.96	3.28
991.13	5.72
991.30	9.35
991.46	4.52
991.63	3.93
991.80	5.12
991.97	5.36
992.13	6.14
992.30	4.15
992.47	4.77
992.64	0.37
992.80	-0.97
992.97	-0.26
993.14	-2.12
993.31	1.34
993.47	-0.48
993.64	-2.70
993.81	-1.40
993.98	-6.72
994.14	-7.24
994.31	-10.69
994.48	-5.66
994.64	-6.07
994.81	-5.73
994.98	-5.94
995.15	-4.65
995.31	-2.07
995.48	1.84
995.65	0.50
995.82	3.07
995.98	2.42
996.15	3.87
996.32	3.05
996.48	6.68
996.65	6.29
996.82	7.61
996.99	6.53
997.15	4.93
997.32	3.93
997.49	6.39
997.65	7.58
997.82	7.76
997.99	8.08
998.15	8.81
998.32	6.96
998.49	4.88
998.65	7.07
998.82	4.04
998.99	2.96
999.15	2.48
999.32	2.31
999.49	3.15
999.65	4.67
999.82	1.23
999.99	0.09
1000.15	-1.64
1000.32	-1.51
1000.49	-4.38
1000.65	-2.09
1000.82	-1.66
1000.99	-1.27
1001.15	-1.58
1001.32	-5.03
1001.49	-6.18
1001.65	-3.59
1001.82	-4.45
1001.99	-2.20
1002.15	-0.37
1002.32	-2.64
1002.49	0.32
1002.65	3.15
1002.82	2.55
1002.99	1.06
1003.15	4.11
1003.32	4.08
1003.48	6.55
1003.65	8.30
1003.82	5.38
1003.98	5.21
1004.15	5.57
1004.32	3.89
1004.48	2.07
1004.65	2.70
1004.81	4.51
1004.98	3.61
1005.15	3.52
1005.31	4.71
1005.48	5.16
1005.64	5.29
1005.81	4.93
1005.98	6.65
1006.14	5.83
1006.31	6.18
1006.47	3.84
1006.64	2.12
1006.81	0.89
1006.97	2.53
1007.14	0.34
1007.30	1.56
1007.47	2.51
1007.63	0.50
1007.80	-0.61
1007.97	-0.22
1008.13	0.41
1008.30	1.94
1008.46	4.51
1008.63	4.26
1008.79	5.23
1008.96	7.06
1009.13	2.64
1009.29	3.50
1009.46	6.22
1009.62	5.92
1009.79	4.54
1009.95	5.92
1010.12	5.85
1010.28	3.13
1010.45	1.62
1010.62	-0.82
1010.78	-0.67
1010.95	1.02
1011.11	0.63
1011.28	0.13
1011.44	0.20
1011.61	2.48
1011.77	0.35
1011.94	0.91
1012.10	2.38
1012.27	6.87
1012.43	8.28
1012.60	6.78
1012.76	5.73
1012.93	4.93
1013.10	2.22
1013.26	2.27
1013.43	0.63
1013.59	0.78
1013.76	-0.48
1013.92	-1.56
1014.09	-4.90
1014.25	-8.40
1014.42	-10.35
1014.58	-9.27
1014.75	-8.53
1014.91	-8.86
1015.08	-3.48
1015.24	-2.20
1015.41	-3.80
1015.57	-2.92
1015.73	-3.22
1015.90	1.62
1016.06	3.69
1016.23	7.22
1016.39	7.52
1016.56	6.89
1016.72	5.99
1016.89	1.21
1017.05	2.25
1017.22	3.11
1017.38	5.73
1017.55	4.02
1017.71	0.71
1017.88	0.78
1018.04	-0.07
1018.21	0.22
1018.37	1.79
1018.53	5.51
1018.70	9.53
1018.86	8.28
1019.03	8.53
1019.19	6.27
1019.36	9.94
1019.52	7.45
1019.69	7.60
1019.85	7.22
1020.01	3.50
1020.18	3.00
1020.34	1.95
1020.51	-3.54
1020.67	-6.11
1020.84	-6.52
1021.00	-7.93
1021.16	-6.14
1021.33	-2.74
1021.49	-2.51
1021.66	-1.66
1021.82	-0.50
1021.98	-0.63
1022.15	1.14
1022.31	2.61
1022.48	1.02
1022.64	2.96
1022.80	3.93
1022.97	0.69
1023.13	3.63
1023.30	5.66
1023.46	4.88
1023.62	7.32
1023.79	7.60
1023.95	7.71
1024.12	8.84
1024.28	12.06
1024.44	13.27
1024.61	14.21
1024.77	15.47
1024.93	10.72
1025.10	10.05
1025.26	11.34
1025.43	13.29
1025.59	11.51
1025.75	10.33
1025.92	11.06
1026.08	10.87
1026.24	7.26
1026.41	7.91
1026.57	8.55
1026.73	7.71
1026.90	7.00
1027.06	4.52
1027.23	-1.64
1027.39	-2.16
1027.55	-3.52
1027.72	-5.05
1027.88	-2.40
1028.04	-4.00
1028.21	-3.54
1028.37	-6.46
1028.53	-2.51
1028.70	-3.78
1028.86	-3.24
1029.02	1.79
1029.19	2.74
1029.35	5.99
1029.51	6.65
1029.67	5.12
1029.84	5.88
1030.00	2.89
1030.16	2.72
1030.33	-0.76
1030.49	0.69
1030.65	0.11
1030.82	-0.41
1030.98	0.54
1031.14	-2.46
1031.31	-0.65
1031.47	-0.93
1031.63	-2.14
1031.79	-0.56
1031.96	0.48
1032.12	-0.45
1032.28	-1.19
1032.45	1.51
1032.61	1.36
1032.77	-0.24
1032.93	0.37
1033.10	-0.76
1033.26	-0.26
1033.42	3.87
1033.58	7.56
1033.75	7.39
1033.91	5.59
1034.07	5.70
1034.24	3.33
1034.40	2.05
1034.56	1.02
1034.72	3.87
1034.89	3.24
1035.05	4.38
1035.21	2.38
1035.37	-1.62
1035.54	-2.36
1035.70	1.75
1035.86	2.38
1036.02	1.95
1036.19	1.77
1036.35	4.78
1036.51	1.38
1036.67	1.04
1036.83	-2.03
1037.00	-2.25
1037.16	-3.30
1037.32	-1.38
1037.48	-1.04
1037.65	-3.54
1037.81	-3.15
1037.97	-0.78
1038.13	-1.27
1038.29	1.32
1038.46	1.95
1038.62	4.62
1038.78	3.33
1038.94	5.59
1039.10	1.79
1039.27	2.48
1039.43	4.34
1039.59	0.47
1039.75	-0.60
1039.91	-1.06
1040.08	-4.99
1040.24	-5.68
1040.40	-6.94
1040.56	-3.13
1040.72	-3.35
1040.89	1.32
1041.05	-4.78
1041.21	-4.36
1041.37	-1.12
1041.53	-1.84
1041.69	-0.61
1041.86	0.61
1042.02	-1.79
1042.18	-1.95
1042.34	-1.45
1042.50	-4.00
1042.66	-6.68
1042.83	-0.97
1042.99	-0.93
1043.15	-2.10
1043.31	-1.75
1043.47	-3.82
1043.63	-2.07
1043.79	0.84
1043.96	1.06
1044.12	-2.92
1044.28	-0.91
1044.44	-0.97
1044.60	-0.80
1044.76	-2.25
1044.92	-1.38
1045.09	-1.45
1045.25	-0.48
1045.41	0.97
1045.57	0.52
1045.73	-2.94
1045.89	-2.46
1046.05	-5.68
1046.21	24.17
1046.38	1.64
1046.54	-33.59
1046.70	-8.81
1046.86	-24.99
>>>>>End Processed Spectral Data<<<<<
