SpectraSuite Data File
++++++++++++++++++++++++++++++++++++
Date: Mon May 06 13:46:39 CDT 2013
User: Students
Dark Spectrum Present: Yes
Reference Spectrum Present: Yes
Number of Sampled Component Spectra: 1
Spectrometers: USB4H00887
Integration Time (usec): 100000 (USB4H00887)
Spectra Averaged: 10 (USB4H00887)
Boxcar Smoothing: 5 (USB4H00887)
Correct for Electrical Dark: No (USB4H00887)
Strobe/Lamp Enabled: No (USB4H00887)
Correct for Detector Non-linearity: No (USB4H00887)
Correct for Stray Light: No (USB4H00887)
Number of Pixels in Processed Spectrum: 3648
>>>>>Begin Processed Spectral Data<<<<<
345.83	-10.04
346.05	-10.04
346.26	-10.04
346.48	9.83
346.70	-6.96
346.92	-5.73
347.14	-8.06
347.35	-7.71
347.57	-8.17
347.79	-10.48
348.01	-10.76
348.23	-7.15
348.44	-6.39
348.66	-6.98
348.88	-5.19
349.10	-6.91
349.32	-3.95
349.53	-1.10
349.75	-3.85
349.97	-0.54
350.19	1.10
350.41	2.89
350.62	2.83
350.84	1.60
351.06	0.60
351.28	1.62
351.50	5.64
351.71	2.72
351.93	2.64
352.15	7.63
352.37	4.41
352.58	4.00
352.80	4.32
353.02	5.66
353.24	7.22
353.46	5.51
353.67	3.85
353.89	0.89
354.11	0.67
354.33	0.20
354.54	-0.86
354.76	1.25
354.98	3.09
355.20	1.69
355.41	-1.40
355.63	-1.56
355.85	-1.84
356.07	-2.96
356.28	-3.44
356.50	-2.53
356.72	0.76
356.94	0.48
357.15	-0.95
357.37	-3.02
357.59	-0.47
357.81	-2.35
358.02	-1.68
358.24	5.05
358.46	8.73
358.68	9.81
358.89	9.96
359.11	6.31
359.33	8.25
359.55	7.80
359.76	7.28
359.98	4.11
360.20	8.02
360.42	8.92
360.63	1.21
360.85	-5.36
361.07	-5.83
361.29	-5.88
361.50	-6.78
361.72	-6.72
361.94	-7.26
362.15	-5.98
362.37	-4.21
362.59	-4.69
362.81	-4.51
363.02	-0.24
363.24	0.78
363.46	0.35
363.68	-0.73
363.89	1.82
364.11	-0.04
364.33	2.72
364.54	0.69
364.76	0.19
364.98	1.36
365.20	-3.87
365.41	-8.49
365.63	-4.13
365.85	-3.70
366.06	-2.38
366.28	-2.44
366.50	-2.55
366.71	-2.83
366.93	-1.06
367.15	1.23
367.37	0.80
367.58	4.54
367.80	8.45
368.02	8.28
368.23	7.89
368.45	6.81
368.67	7.28
368.88	5.06
369.10	4.77
369.32	4.95
369.53	2.61
369.75	3.05
369.97	2.09
370.19	1.27
370.40	1.43
370.62	4.52
370.84	5.94
371.05	4.28
371.27	4.84
371.49	4.00
371.70	2.83
371.92	4.65
372.14	1.73
372.35	3.80
372.57	6.01
372.79	4.28
373.00	4.13
373.22	4.88
373.44	5.19
373.65	7.75
373.87	7.47
374.09	6.52
374.30	4.90
374.52	5.72
374.74	5.64
374.95	1.40
375.17	5.64
375.39	3.69
375.60	-0.89
375.82	-0.99
376.04	-1.47
376.25	-1.15
376.47	2.74
376.68	1.68
376.90	2.18
377.12	1.84
377.33	2.12
377.55	0.35
377.77	-0.93
377.98	1.45
378.20	4.39
378.42	5.62
378.63	7.78
378.85	6.33
379.07	7.61
379.28	4.64
379.50	7.30
379.71	10.82
379.93	8.90
380.15	10.26
380.36	11.54
380.58	12.25
380.80	12.05
381.01	10.95
381.23	10.69
381.44	10.84
381.66	14.54
381.88	11.67
382.09	8.53
382.31	9.72
382.53	10.85
382.74	11.58
382.96	9.92
383.17	5.14
383.39	2.94
383.61	4.49
383.82	3.28
384.04	2.10
384.25	4.67
384.47	6.13
384.69	3.17
384.90	2.10
385.12	-0.13
385.33	-1.14
385.55	2.90
385.77	2.96
385.98	0.52
386.20	0.07
386.41	0.02
386.63	-3.20
386.85	-2.18
387.06	-1.21
387.28	0.11
387.49	2.33
387.71	2.16
387.93	0.24
388.14	2.03
388.36	2.29
388.57	5.88
388.79	6.48
389.01	7.97
389.22	7.69
389.44	9.01
389.65	7.93
389.87	8.55
390.08	9.76
390.30	11.43
390.52	10.74
390.73	13.78
390.95	12.03
391.16	10.20
391.38	9.63
391.59	6.83
391.81	6.39
392.03	3.54
392.24	-0.04
392.46	-1.06
392.67	0.47
392.89	1.15
393.10	-0.34
393.32	-2.42
393.53	-3.22
393.75	-4.28
393.97	-1.71
394.18	-2.66
394.40	0.41
394.61	3.13
394.83	0.88
395.04	-0.50
395.26	-2.01
395.47	-1.86
395.69	0.43
395.91	-1.68
396.12	-0.88
396.34	0.47
396.55	1.02
396.77	0.00
396.98	-2.96
397.20	-0.24
397.41	0.20
397.63	-0.35
397.84	-4.71
398.06	-6.18
398.27	0.78
398.49	0.39
398.71	-2.68
398.92	-3.52
399.14	-1.58
399.35	-0.20
399.57	-2.20
399.78	-4.24
400.00	-4.47
400.21	-2.85
400.43	-5.53
400.64	-8.10
400.86	-7.11
401.07	-4.38
401.29	-3.65
401.50	-6.05
401.72	-8.19
401.93	-6.13
402.15	-4.77
402.36	-4.69
402.58	-3.57
402.79	-0.97
403.01	-1.60
403.22	-1.88
403.44	-4.00
403.65	-4.24
403.87	1.36
404.08	4.88
404.30	2.40
404.51	1.40
404.73	3.72
404.94	4.28
405.16	4.99
405.37	6.74
405.59	8.60
405.80	7.00
406.02	5.92
406.23	2.01
406.45	-2.05
406.66	0.37
406.88	-2.70
407.09	-4.04
407.31	-2.36
407.52	-6.59
407.74	-6.74
407.95	-9.89
408.17	-5.66
408.38	-3.28
408.60	-4.82
408.81	-0.73
409.03	-0.34
409.24	0.74
409.45	1.69
409.67	-0.52
409.88	3.84
410.10	2.01
410.31	2.63
410.53	-3.31
410.74	-4.67
410.96	-5.40
411.17	-8.43
411.39	-10.37
411.60	-8.86
411.82	-10.52
412.03	-10.30
412.24	-9.76
412.46	-8.77
412.67	-11.75
412.89	-10.48
413.10	-8.86
413.32	-7.28
413.53	-7.21
413.75	-9.46
413.96	-9.96
414.17	-7.71
414.39	-6.67
414.60	-7.54
414.82	-8.10
415.03	-5.32
415.25	0.61
415.46	2.59
415.68	4.49
415.89	11.00
416.10	11.80
416.32	14.08
416.53	14.52
416.75	13.16
416.96	11.82
417.18	10.11
417.39	9.96
417.60	6.91
417.82	4.41
418.03	3.48
418.25	-0.02
418.46	5.42
418.67	5.60
418.89	5.16
419.10	4.67
419.32	5.60
419.53	4.82
419.75	5.34
419.96	2.63
420.17	2.35
420.39	4.21
420.60	2.66
420.82	-0.78
421.03	-2.42
421.24	-5.60
421.46	-5.64
421.67	-6.57
421.89	-0.84
422.10	-2.22
422.31	-1.55
422.53	-3.72
422.74	-5.98
422.96	-7.48
423.17	-8.40
423.38	-8.02
423.60	-6.98
423.81	-4.60
424.03	-2.61
424.24	-4.80
424.45	-3.98
424.67	-1.79
424.88	-0.67
425.09	-0.00
425.31	-1.56
425.52	0.30
425.74	-0.20
425.95	1.77
426.16	0.58
426.38	-3.22
426.59	-1.99
426.80	-1.17
427.02	-1.23
427.23	0.20
427.45	-0.41
427.66	3.18
427.87	3.59
428.09	5.85
428.30	5.79
428.51	6.93
428.73	8.08
428.94	6.09
429.15	3.65
429.37	4.41
429.58	5.31
429.79	7.43
430.01	6.87
430.22	6.85
430.44	4.67
430.65	3.93
430.86	3.28
431.08	3.87
431.29	4.65
431.50	6.35
431.72	3.69
431.93	1.95
432.14	-0.17
432.36	0.02
432.57	1.01
432.78	1.21
433.00	0.54
433.21	1.69
433.42	2.90
433.64	3.57
433.85	4.78
434.06	6.31
434.28	5.21
434.49	6.09
434.70	5.40
434.92	3.22
435.13	3.50
435.34	6.11
435.56	2.59
435.77	3.69
435.98	0.61
436.20	1.38
436.41	2.03
436.62	3.03
436.83	1.99
437.05	4.26
437.26	6.70
437.47	4.73
437.69	2.68
437.90	6.44
438.11	7.43
438.33	7.41
438.54	5.46
438.75	5.49
438.97	5.57
439.18	6.81
439.39	5.64
439.60	4.00
439.82	7.26
440.03	8.84
440.24	8.68
440.46	7.50
440.67	11.39
440.88	11.11
441.10	10.28
441.31	12.40
441.52	13.16
441.73	13.63
441.95	14.99
442.16	15.49
442.37	10.54
442.58	9.77
442.80	8.66
443.01	4.41
443.22	5.96
443.44	6.91
443.65	4.78
443.86	3.69
444.07	4.04
444.29	1.58
444.50	1.53
444.71	7.35
444.92	1.38
445.14	1.28
445.35	2.18
445.56	1.38
445.78	-0.58
445.99	-1.28
446.20	-0.32
446.41	-1.15
446.63	1.86
446.84	1.60
447.05	0.37
447.26	7.32
447.48	9.50
447.69	10.65
447.90	11.71
448.11	14.26
448.33	16.74
448.54	16.76
448.75	15.19
448.96	13.67
449.18	15.86
449.39	16.12
449.60	15.29
449.81	15.53
450.03	17.02
450.24	17.89
450.45	15.25
450.66	13.83
450.87	11.64
451.09	12.03
451.30	9.18
451.51	7.37
451.72	9.44
451.94	6.22
452.15	4.47
452.36	1.94
452.57	-0.54
452.78	0.95
453.00	0.22
453.21	1.69
453.42	4.62
453.63	9.14
453.85	8.88
454.06	7.52
454.27	10.11
454.48	10.54
454.69	12.86
454.91	15.29
455.12	16.05
455.33	19.70
455.54	21.43
455.75	22.08
455.97	20.14
456.18	19.40
456.39	21.41
456.60	22.86
456.81	25.00
457.03	28.76
457.24	30.20
457.45	33.64
457.66	35.19
457.87	34.26
458.09	35.71
458.30	39.04
458.51	40.79
458.72	38.63
458.93	41.50
459.15	43.34
459.36	42.80
459.57	43.10
459.78	39.84
459.99	38.86
460.20	41.15
460.42	39.99
460.63	41.48
460.84	41.93
461.05	46.66
461.26	47.98
461.47	50.64
461.69	52.78
461.90	54.40
462.11	57.59
462.32	60.40
462.53	63.52
462.74	66.65
462.96	66.84
463.17	70.30
463.38	68.55
463.59	68.09
463.80	68.68
464.01	68.70
464.23	70.15
464.44	74.25
464.65	77.99
464.86	80.39
465.07	80.82
465.28	83.04
465.49	88.21
465.71	95.03
465.92	100.26
466.13	101.58
466.34	103.70
466.55	105.95
466.76	106.40
466.97	107.48
467.19	107.98
467.40	114.15
467.61	118.74
467.82	119.32
468.03	122.82
468.24	125.35
468.45	132.24
468.66	136.73
468.88	141.87
469.09	147.90
469.30	152.35
469.51	156.32
469.72	156.91
469.93	160.00
470.14	167.13
470.35	165.87
470.57	168.01
470.78	169.01
470.99	175.21
471.20	178.84
471.41	179.66
471.62	185.66
471.83	193.25
472.04	199.34
472.25	203.38
472.47	202.84
472.68	214.01
472.89	219.95
473.10	226.49
473.31	230.90
473.52	235.50
473.73	245.33
473.94	249.76
474.15	253.82
474.36	263.82
474.57	273.07
474.79	281.52
475.00	285.49
475.21	293.16
475.42	298.56
475.63	303.47
475.84	312.04
476.05	318.78
476.26	325.33
476.47	331.77
476.68	335.72
476.89	342.03
477.10	349.07
477.32	356.29
477.53	364.59
477.74	370.50
477.95	378.97
478.16	383.98
478.37	389.17
478.58	397.55
478.79	405.70
479.00	413.69
479.21	419.57
479.42	426.05
479.63	432.05
479.84	438.51
480.05	446.44
480.26	455.92
480.47	465.41
480.69	474.85
480.90	479.54
481.11	486.11
481.32	495.44
481.53	504.86
481.74	516.27
481.95	521.80
482.16	526.81
482.37	535.43
482.58	542.15
482.79	549.92
483.00	557.74
483.21	564.42
483.42	576.06
483.63	577.97
483.84	583.00
484.05	588.55
484.26	597.02
484.47	609.66
484.68	618.90
484.89	623.79
485.10	631.50
485.31	636.27
485.52	643.79
485.73	645.33
485.94	653.36
486.15	657.86
486.37	664.75
486.58	670.06
486.79	670.84
487.00	671.73
487.21	676.95
487.42	683.24
487.63	686.70
487.84	688.84
488.05	694.88
488.26	698.30
488.47	702.56
488.68	702.27
488.89	707.26
489.10	709.36
489.31	714.93
489.52	715.49
489.73	717.12
489.94	718.93
490.15	725.69
490.36	725.69
490.57	724.01
490.78	724.20
490.99	723.38
491.20	721.00
491.41	719.94
491.62	716.06
491.83	717.85
492.04	713.38
492.25	714.55
492.45	710.29
492.66	710.72
492.87	714.26
493.08	714.50
493.29	716.81
493.50	718.06
493.71	719.79
493.92	721.82
494.13	719.13
494.34	718.06
494.55	711.76
494.76	710.35
494.97	705.51
495.18	702.56
495.39	701.04
495.60	695.99
495.81	694.67
496.02	688.27
496.23	680.67
496.44	681.64
496.65	679.33
496.86	682.53
497.07	682.27
497.28	679.76
497.49	673.24
497.70	670.36
497.91	666.61
498.12	658.29
498.32	656.75
498.53	660.12
498.74	651.01
498.95	647.79
499.16	643.71
499.37	636.86
499.58	634.50
499.79	628.24
500.00	622.86
500.21	621.73
500.42	618.64
500.63	614.69
500.84	604.02
501.05	603.31
501.26	596.07
501.46	589.85
501.67	586.50
501.88	580.77
502.09	583.35
502.30	577.42
502.51	570.99
502.72	566.65
502.93	557.74
503.14	555.15
503.35	547.24
503.56	545.73
503.77	539.70
503.97	531.93
504.18	524.67
504.39	515.18
504.60	510.34
504.81	506.65
505.02	502.42
505.23	497.47
505.44	490.95
505.65	485.33
505.86	476.73
506.07	470.23
506.27	470.20
506.48	467.07
506.69	465.26
506.90	460.12
507.11	453.57
507.32	449.14
507.53	450.29
507.74	448.36
507.95	447.52
508.15	449.38
508.36	446.05
508.57	442.60
508.78	439.89
508.99	436.98
509.20	431.41
509.41	429.92
509.62	427.02
509.82	421.19
510.03	416.39
510.24	410.88
510.45	403.78
510.66	401.74
510.87	394.76
511.08	390.85
511.29	384.76
511.49	386.34
511.70	386.04
511.91	384.53
512.12	382.64
512.33	382.97
512.54	380.92
512.75	380.49
512.95	378.93
513.16	376.34
513.37	374.91
513.58	375.34
513.79	373.83
514.00	369.55
514.20	368.76
514.41	366.10
514.62	363.85
514.83	363.96
515.04	363.03
515.25	362.30
515.46	363.55
515.66	363.59
515.87	364.20
516.08	362.45
516.29	364.05
516.50	361.22
516.71	361.22
516.91	362.14
517.12	363.89
517.33	361.39
517.54	360.68
517.75	357.82
517.95	356.66
518.16	353.18
518.37	354.00
518.58	352.27
518.79	350.74
519.00	350.26
519.20	345.94
519.41	341.64
519.62	339.83
519.83	337.58
520.04	337.56
520.24	335.57
520.45	335.94
520.66	334.08
520.87	333.52
521.08	331.81
521.28	333.35
521.49	333.86
521.70	337.21
521.91	341.43
522.12	341.53
522.32	341.92
522.53	343.07
522.74	340.24
522.95	340.19
523.16	339.55
523.36	340.54
523.57	338.92
523.78	340.00
523.99	339.31
524.20	335.14
524.40	340.89
524.61	341.82
524.82	344.60
525.03	348.19
525.23	349.92
525.44	350.80
525.65	351.79
525.86	354.89
526.06	357.28
526.27	356.42
526.48	358.49
526.69	354.28
526.90	355.60
527.10	356.51
527.31	356.85
527.52	359.57
527.73	360.09
527.93	362.30
528.14	362.94
528.35	361.63
528.56	363.92
528.76	366.79
528.97	367.98
529.18	367.50
529.39	367.59
529.59	370.03
529.80	369.19
530.01	367.93
530.22	371.84
530.42	371.99
530.63	373.59
530.84	371.93
531.05	371.48
531.25	373.07
531.46	373.42
531.67	373.05
531.88	372.54
532.08	371.54
532.29	376.42
532.50	375.47
532.70	379.15
532.91	381.28
533.12	384.22
533.33	384.72
533.53	386.36
533.74	388.28
533.95	391.24
534.15	393.77
534.36	397.31
534.57	395.91
534.78	395.65
534.98	394.23
535.19	394.16
535.40	397.59
535.60	399.45
535.81	403.17
536.02	404.40
536.23	404.38
536.43	409.82
536.64	411.72
536.85	414.73
537.05	421.04
537.26	423.63
537.47	429.57
537.67	428.97
537.88	430.86
538.09	432.33
538.30	438.81
538.50	440.26
538.71	438.34
538.92	441.84
539.12	444.71
539.33	444.35
539.54	443.33
539.74	444.24
539.95	447.29
540.16	452.04
540.36	452.28
540.57	454.15
540.78	458.89
540.98	463.16
541.19	463.73
541.40	469.13
541.60	470.85
541.81	477.98
542.02	479.32
542.22	480.86
542.43	483.71
542.64	487.53
542.84	488.18
543.05	493.06
543.26	491.48
543.46	494.19
543.67	493.37
543.88	496.39
544.08	498.03
544.29	497.40
544.50	500.19
544.70	497.25
544.91	504.15
545.12	506.11
545.32	502.46
545.53	509.35
545.74	511.14
545.94	512.36
546.15	512.22
546.35	514.45
546.56	518.27
546.77	519.89
546.97	524.00
547.18	519.76
547.39	519.55
547.59	525.49
547.80	524.78
548.01	527.30
548.21	530.98
548.42	535.88
548.62	535.19
548.83	538.95
549.04	541.61
549.24	546.73
549.45	548.93
549.65	552.34
549.86	552.37
550.07	555.71
550.27	558.50
550.48	560.44
550.69	566.30
550.89	569.69
551.10	569.93
551.30	574.32
551.51	576.45
551.72	582.57
551.92	585.76
552.13	589.96
552.33	589.72
552.54	589.46
552.75	591.45
552.95	587.80
553.16	592.07
553.36	595.29
553.57	598.79
553.78	596.72
553.98	598.06
554.19	605.14
554.39	604.26
554.60	607.19
554.80	610.03
555.01	611.21
555.22	614.93
555.42	614.78
555.63	615.06
555.83	617.33
556.04	626.19
556.25	625.08
556.45	622.66
556.66	630.40
556.86	630.96
557.07	633.59
557.27	635.41
557.48	637.05
557.68	638.98
557.89	642.22
558.10	643.12
558.30	640.68
558.51	644.74
558.71	643.99
558.92	641.74
559.12	643.23
559.33	645.00
559.54	647.60
559.74	649.04
559.95	650.53
560.15	650.96
560.36	651.76
560.56	655.13
560.77	658.44
560.97	660.84
561.18	661.96
561.38	666.32
561.59	670.90
561.79	670.45
562.00	673.41
562.21	673.22
562.41	678.42
562.62	679.33
562.82	680.95
563.03	676.95
563.23	677.93
563.44	678.68
563.64	680.22
563.85	678.40
564.05	680.00
564.26	677.60
564.46	679.27
564.67	678.92
564.87	675.64
565.08	673.00
565.28	675.92
565.49	677.49
565.69	678.83
565.90	678.79
566.10	677.62
566.31	678.55
566.51	680.00
566.72	681.82
566.92	683.35
567.13	687.22
567.33	689.16
567.54	688.30
567.74	688.02
567.95	688.32
568.15	690.20
568.36	694.08
568.56	693.83
568.77	693.27
568.97	695.49
569.18	691.23
569.38	695.47
569.59	694.43
569.79	696.27
570.00	697.41
570.20	695.73
570.41	691.84
570.61	691.92
570.82	691.95
571.02	695.16
571.23	688.71
571.43	689.72
571.64	684.60
571.84	684.88
572.05	683.17
572.25	683.91
572.45	684.84
572.66	684.88
572.86	683.44
573.07	680.60
573.27	679.83
573.48	682.44
573.68	679.61
573.89	679.26
574.09	681.25
574.30	681.53
574.50	680.34
574.70	679.05
574.91	678.94
575.11	678.08
575.32	677.39
575.52	673.48
575.73	674.17
575.93	675.70
576.14	670.91
576.34	669.89
576.54	667.47
576.75	667.28
576.95	663.23
577.16	662.35
577.36	659.45
577.57	654.64
577.77	656.26
577.97	655.89
578.18	653.79
578.38	657.66
578.59	651.07
578.79	651.87
579.00	648.01
579.20	648.72
579.40	648.39
579.61	644.89
579.81	648.41
580.02	641.42
580.22	636.94
580.42	633.25
580.63	624.69
580.83	620.05
581.04	613.94
581.24	611.86
581.45	608.06
581.65	601.64
581.85	596.52
582.06	592.57
582.26	589.61
582.47	585.01
582.67	579.67
582.87	578.07
583.08	578.87
583.28	577.01
583.48	571.49
583.69	567.77
583.89	566.11
584.10	564.33
584.30	555.06
584.50	553.31
584.71	547.59
584.91	546.60
585.12	543.94
585.32	538.80
585.52	537.16
585.73	537.18
585.93	532.60
586.13	526.38
586.34	522.60
586.54	522.23
586.75	513.97
586.95	512.72
587.15	506.76
587.36	502.74
587.56	498.49
587.76	490.58
587.97	482.24
588.17	477.59
588.37	473.97
588.58	471.07
588.78	468.63
588.98	466.75
589.19	463.55
589.39	461.39
589.60	455.11
589.80	453.14
590.00	450.39
590.21	444.50
590.41	439.66
590.61	435.49
590.82	428.83
591.02	425.57
591.22	423.84
591.43	418.10
591.63	412.39
591.83	412.59
592.04	406.61
592.24	401.79
592.44	398.72
592.65	394.59
592.85	391.33
593.05	388.80
593.26	380.14
593.46	375.65
593.66	370.40
593.86	370.01
594.07	363.05
594.27	360.05
594.47	368.69
594.68	366.44
594.88	360.24
595.08	354.47
595.29	348.66
595.49	346.35
595.69	341.92
595.90	340.28
596.10	332.27
596.30	329.20
596.50	323.34
596.71	306.69
596.91	303.53
597.11	306.12
597.32	306.23
597.52	302.76
597.72	301.85
597.93	298.17
598.13	293.64
598.33	295.71
598.53	292.17
598.74	291.20
598.94	288.43
599.14	285.21
599.35	279.81
599.55	276.33
599.75	276.70
599.95	275.06
600.16	271.24
600.36	267.30
600.56	261.58
600.76	260.71
600.97	259.44
601.17	257.82
601.37	253.17
601.58	252.78
601.78	247.56
601.98	245.92
602.18	242.52
602.39	243.30
602.59	244.79
602.79	242.54
602.99	237.47
603.20	233.45
603.40	230.79
603.60	228.14
603.80	227.86
604.01	230.01
604.21	223.21
604.41	219.82
604.61	218.65
604.82	214.20
605.02	213.47
605.22	212.49
605.42	210.85
605.62	208.95
605.83	207.05
606.03	203.07
606.23	199.84
606.43	201.50
606.64	197.46
606.84	196.23
607.04	197.31
607.24	195.88
607.45	195.10
607.65	194.15
607.85	192.21
608.05	197.85
608.25	199.30
608.46	198.00
608.66	197.55
608.86	204.69
609.06	201.17
609.26	200.89
609.47	200.89
609.67	202.86
609.87	201.07
610.07	201.26
610.28	197.82
610.48	193.53
610.68	195.15
610.88	194.61
611.08	192.21
611.29	191.15
611.49	185.55
611.69	184.88
611.89	182.01
612.09	179.94
612.29	181.19
612.50	177.11
612.70	179.07
612.90	174.92
613.10	171.79
613.30	170.80
613.51	174.78
613.71	176.50
613.91	173.15
614.11	171.94
614.31	173.39
614.51	171.19
614.72	173.22
614.92	173.52
615.12	171.97
615.32	171.38
615.52	168.60
615.72	165.74
615.93	162.01
616.13	165.08
616.33	164.94
616.53	163.33
616.73	163.37
616.93	161.60
617.14	158.14
617.34	160.08
617.54	162.85
617.74	160.54
617.94	158.62
618.14	161.32
618.34	156.69
618.55	155.66
618.75	158.38
618.95	154.64
619.15	151.87
619.35	151.98
619.55	148.61
619.75	150.32
619.96	153.02
620.16	152.44
620.36	152.18
620.56	153.86
620.76	153.30
620.96	152.61
621.16	154.17
621.36	158.16
621.57	156.63
621.77	158.31
621.97	153.11
622.17	150.17
622.37	151.12
622.57	153.41
622.77	154.10
622.97	151.75
623.18	148.63
623.38	149.93
623.58	145.72
623.78	146.80
623.98	148.53
624.18	149.15
624.38	152.61
624.58	151.49
624.78	153.32
624.98	152.87
625.19	154.60
625.39	154.88
625.59	151.85
625.79	153.82
625.99	154.51
626.19	150.95
626.39	151.38
626.59	147.03
626.79	145.70
626.99	141.44
627.19	141.70
627.40	143.58
627.60	143.82
627.80	147.14
628.00	147.06
628.20	146.86
628.40	149.87
628.60	148.31
628.80	149.84
629.00	150.13
629.20	151.40
629.40	151.38
629.60	149.97
629.80	148.33
630.00	150.51
630.20	150.73
630.41	149.63
630.61	146.84
630.81	147.10
631.01	149.61
631.21	152.89
631.41	152.07
631.61	154.03
631.81	152.78
632.01	156.13
632.21	151.68
632.41	150.41
632.61	152.00
632.81	152.00
633.01	156.39
633.21	153.49
633.41	149.54
633.61	149.11
633.81	144.27
634.01	145.72
634.21	143.36
634.41	143.30
634.61	143.32
634.81	143.28
635.01	145.22
635.22	138.93
635.42	139.52
635.62	141.66
635.82	140.70
636.02	144.98
636.22	144.49
636.42	145.80
636.62	144.74
636.82	145.50
637.02	141.46
637.22	140.06
637.42	142.43
637.62	143.15
637.82	136.88
638.02	138.72
638.22	137.29
638.42	138.41
638.62	135.72
638.82	136.60
639.02	134.92
639.22	138.39
639.42	138.07
639.62	137.75
639.82	135.85
640.02	142.09
640.22	138.80
640.42	134.18
640.62	131.83
640.82	132.84
641.02	132.95
641.22	136.12
641.42	133.84
641.61	135.85
641.81	139.76
642.01	143.36
642.21	141.07
642.41	140.25
642.61	142.61
642.81	145.18
643.01	145.85
643.21	146.08
643.41	145.63
643.61	147.49
643.81	148.87
644.01	142.37
644.21	139.08
644.41	137.51
644.61	141.09
644.81	141.25
645.01	140.99
645.21	140.16
645.41	139.39
645.61	139.19
645.81	137.94
646.01	134.77
646.21	138.39
646.40	138.76
646.60	142.22
646.80	143.32
647.00	144.57
647.20	141.42
647.40	144.87
647.60	147.08
647.80	141.76
648.00	143.95
648.20	144.38
648.40	143.51
648.60	142.52
648.80	141.14
649.00	140.08
649.20	138.24
649.39	139.56
649.59	137.20
649.79	135.31
649.99	139.88
650.19	138.44
650.39	139.43
650.59	139.91
650.79	141.68
650.99	140.92
651.19	139.02
651.39	140.71
651.58	140.30
651.78	138.68
651.98	137.34
652.18	135.26
652.38	136.47
652.58	135.74
652.78	133.32
652.98	131.29
653.18	132.06
653.38	132.71
653.57	129.13
653.77	128.65
653.97	126.77
654.17	124.78
654.37	128.00
654.57	126.79
654.77	124.42
654.97	127.23
655.16	129.54
655.36	131.93
655.56	130.81
655.76	132.56
655.96	134.53
656.16	135.35
656.36	137.74
656.56	135.13
656.75	136.95
656.95	139.22
657.15	137.81
657.35	131.87
657.55	131.27
657.75	130.87
657.95	132.00
658.14	130.03
658.34	130.23
658.54	130.88
658.74	130.36
658.94	129.54
659.14	128.39
659.34	128.58
659.53	132.54
659.73	130.44
659.93	129.77
660.13	131.09
660.33	132.60
660.53	133.45
660.72	128.69
660.92	130.03
661.12	127.46
661.32	126.94
661.52	123.64
661.72	123.10
661.91	122.47
662.11	124.83
662.31	122.13
662.51	121.56
662.71	120.83
662.90	124.20
663.10	125.84
663.30	123.60
663.50	122.47
663.70	124.03
663.90	124.70
664.09	124.81
664.29	125.32
664.49	128.37
664.69	128.05
664.89	125.67
665.08	125.73
665.28	122.36
665.48	124.11
665.68	125.39
665.88	125.34
666.07	122.32
666.27	120.29
666.47	117.37
666.67	113.44
666.87	112.64
667.06	116.25
667.26	114.82
667.46	111.87
667.66	113.61
667.85	113.49
668.05	116.55
668.25	118.26
668.45	119.08
668.65	123.19
668.84	124.37
669.04	126.69
669.24	127.61
669.44	128.59
669.63	133.14
669.83	131.61
670.03	130.01
670.23	127.16
670.42	127.85
670.62	127.20
670.82	124.44
671.02	125.08
671.22	121.87
671.41	117.20
671.61	116.68
671.81	115.21
672.01	115.47
672.20	114.30
672.40	115.36
672.60	115.64
672.80	118.19
672.99	121.26
673.19	119.81
673.39	120.22
673.58	124.22
673.78	121.65
673.98	118.61
674.18	121.41
674.37	123.46
674.57	123.19
674.77	123.55
674.97	118.80
675.16	114.39
675.36	114.44
675.56	112.55
675.75	111.00
675.95	112.94
676.15	119.04
676.35	119.25
676.54	117.29
676.74	115.58
676.94	110.07
677.13	114.13
677.33	113.98
677.53	113.57
677.73	112.47
677.92	112.75
678.12	113.79
678.32	111.76
678.51	109.85
678.71	113.81
678.91	114.03
679.11	119.90
679.30	120.46
679.50	124.33
679.70	123.59
679.89	123.75
680.09	121.18
680.29	121.56
680.48	120.87
680.68	118.74
680.88	114.52
681.07	115.84
681.27	113.10
681.47	112.60
681.66	108.73
681.86	110.55
682.06	113.85
682.25	118.21
682.45	117.42
682.65	116.14
682.84	115.04
683.04	117.20
683.24	115.97
683.43	116.08
683.63	115.10
683.83	117.46
684.02	117.22
684.22	116.18
684.42	112.32
684.61	111.61
684.81	108.78
685.01	107.98
685.20	105.90
685.40	105.41
685.60	104.15
685.79	103.89
685.99	103.12
686.19	100.89
686.38	101.93
686.58	103.96
686.77	104.04
686.97	106.10
687.17	105.45
687.36	105.53
687.56	104.82
687.76	104.69
687.95	102.83
688.15	102.25
688.34	104.33
688.54	103.74
688.74	100.33
688.93	98.51
689.13	98.36
689.33	100.63
689.52	102.06
689.72	103.07
689.91	101.77
690.11	99.03
690.31	97.71
690.50	99.07
690.70	99.59
690.89	101.39
691.09	100.78
691.29	102.71
691.48	101.86
691.68	103.74
691.87	100.74
692.07	103.03
692.27	104.95
692.46	103.83
692.66	102.73
692.85	99.81
693.05	101.24
693.25	102.55
693.44	101.45
693.64	102.88
693.83	99.96
694.03	101.41
694.22	101.13
694.42	101.02
694.62	101.04
694.81	97.74
695.01	96.66
695.20	93.80
695.40	96.11
695.59	94.06
695.79	93.82
695.99	93.96
696.18	94.41
696.38	94.02
696.57	97.52
696.77	97.02
696.96	94.43
697.16	98.13
697.36	97.76
697.55	97.76
697.75	100.78
697.94	95.03
698.14	95.34
698.33	93.48
698.53	94.50
698.72	93.85
698.92	97.00
699.11	99.64
699.31	98.10
699.51	99.18
699.70	97.97
699.90	95.79
700.09	100.20
700.29	97.63
700.48	96.22
700.68	95.99
700.87	96.07
701.07	93.98
701.26	94.45
701.46	96.25
701.65	95.62
701.85	95.34
702.04	96.79
702.24	95.79
702.43	97.04
702.63	103.35
702.82	101.36
703.02	97.87
703.21	96.68
703.41	96.61
703.60	93.42
703.80	93.48
703.99	92.92
704.19	90.07
704.38	89.29
704.58	88.21
704.77	82.25
704.97	83.18
705.16	86.78
705.36	87.26
705.55	87.19
705.75	87.34
705.94	87.80
706.14	88.92
706.33	88.42
706.53	88.44
706.72	90.04
706.92	92.44
707.11	93.41
707.31	89.55
707.50	88.17
707.70	87.28
707.89	85.79
708.09	87.80
708.28	86.13
708.48	86.76
708.67	87.32
708.86	89.25
709.06	87.49
709.25	84.90
709.45	85.90
709.64	88.42
709.84	90.45
710.03	89.44
710.23	85.88
710.42	84.47
710.62	82.12
710.81	81.06
711.00	77.86
711.20	79.96
711.39	83.11
711.59	84.28
711.78	81.34
711.98	81.92
712.17	86.85
712.37	85.16
712.56	87.26
712.75	88.04
712.95	89.03
713.14	88.34
713.34	86.50
713.53	83.61
713.73	81.86
713.92	84.97
714.11	82.57
714.31	77.38
714.50	79.61
714.70	81.04
714.89	84.66
715.08	83.78
715.28	86.28
715.47	87.08
715.67	88.32
715.86	85.83
716.06	82.74
716.25	81.49
716.44	81.92
716.64	83.33
716.83	80.76
717.03	78.16
717.22	80.30
717.41	79.89
717.61	79.41
717.80	76.07
717.99	78.79
718.19	80.80
718.38	84.26
718.58	84.92
718.77	82.10
718.96	79.55
719.16	82.16
719.35	78.87
719.55	77.28
719.74	76.69
719.93	76.09
720.13	74.83
720.32	70.58
720.51	68.53
720.71	69.15
720.90	71.96
721.10	74.25
721.29	73.00
721.48	75.44
721.68	74.38
721.87	75.91
722.06	78.20
722.26	80.26
722.45	85.21
722.64	82.09
722.84	81.70
723.03	77.99
723.22	79.00
723.42	77.64
723.61	75.29
723.80	73.78
724.00	71.96
724.19	72.87
724.38	72.18
724.58	72.27
724.77	77.08
724.96	76.11
725.16	77.39
725.35	75.25
725.54	73.19
725.74	74.47
725.93	78.72
726.12	78.51
726.32	77.23
726.51	78.94
726.70	76.30
726.90	74.96
727.09	78.49
727.28	77.73
727.48	76.48
727.67	79.42
727.86	82.42
728.06	82.25
728.25	81.30
728.44	82.48
728.64	78.62
728.83	76.78
729.02	73.52
729.21	70.54
729.41	71.10
729.60	73.24
729.79	74.29
729.99	70.54
730.18	69.07
730.37	71.18
730.56	71.94
730.76	73.47
730.95	74.27
731.14	75.44
731.34	73.28
731.53	76.00
731.72	74.30
731.91	74.08
732.11	72.57
732.30	71.29
732.49	70.65
732.69	66.43
732.88	65.72
733.07	66.71
733.26	64.29
733.46	63.73
733.65	61.53
733.84	61.76
734.03	58.85
734.23	59.37
734.42	57.96
734.61	57.16
734.80	58.66
735.00	57.64
735.19	56.93
735.38	58.09
735.57	61.18
735.77	61.85
735.96	60.58
736.15	60.43
736.34	62.67
736.54	62.98
736.73	63.34
736.92	60.81
737.11	62.17
737.31	63.56
737.50	54.83
737.69	54.57
737.88	52.52
738.07	53.15
738.27	55.52
738.46	55.31
738.65	58.52
738.84	55.93
739.04	58.07
739.23	57.14
739.42	54.22
739.61	64.66
739.80	61.38
740.00	62.65
740.19	60.62
740.38	59.52
740.57	55.54
740.76	55.37
740.96	59.34
741.15	58.81
741.34	57.66
741.53	60.04
741.72	58.24
741.92	59.26
742.11	55.98
742.30	58.07
742.49	54.94
742.68	54.68
742.88	52.02
743.07	49.34
743.26	51.61
743.45	51.65
743.64	53.10
743.84	52.30
744.03	53.84
744.22	54.38
744.41	50.51
744.60	49.60
744.79	51.26
744.99	50.68
745.18	49.58
745.37	48.41
745.56	50.79
745.75	47.96
745.94	48.72
746.14	47.81
746.33	48.03
746.52	53.08
746.71	53.62
746.90	56.82
747.09	56.75
747.28	57.27
747.48	59.34
747.67	58.98
747.86	57.47
748.05	57.85
748.24	56.00
748.43	55.93
748.62	54.85
748.82	55.44
749.01	52.76
749.20	52.00
749.39	52.74
749.58	51.20
749.77	50.81
749.96	50.51
750.16	49.08
750.35	51.89
750.54	54.48
750.73	54.03
750.92	54.94
751.11	53.97
751.30	54.18
751.49	52.99
751.68	49.21
751.88	50.42
752.07	51.29
752.26	54.27
752.45	52.48
752.64	49.10
752.83	46.30
753.02	46.14
753.21	46.69
753.40	48.70
753.60	50.38
753.79	48.98
753.98	44.81
754.17	47.03
754.36	46.00
754.55	44.76
754.74	43.38
754.93	47.35
755.12	45.30
755.31	43.66
755.50	42.10
755.70	41.72
755.89	46.21
756.08	46.15
756.27	43.31
756.46	41.61
756.65	42.80
756.84	44.29
757.03	42.26
757.22	42.71
757.41	43.03
757.60	43.58
757.79	41.72
757.98	40.88
758.17	42.88
758.36	42.47
758.56	42.39
758.75	44.79
758.94	45.24
759.13	45.91
759.32	48.54
759.51	47.51
759.70	45.37
759.89	46.64
760.08	46.90
760.27	46.21
760.46	46.30
760.65	45.78
760.84	44.46
761.03	43.70
761.22	44.48
761.41	38.65
761.60	40.16
761.79	40.48
761.98	41.63
762.17	42.84
762.36	42.15
762.55	41.89
762.74	41.91
762.93	42.65
763.12	42.54
763.31	39.88
763.50	45.19
763.69	45.33
763.88	43.96
764.07	41.91
764.26	37.46
764.45	35.37
764.64	36.36
764.83	37.89
765.02	37.65
765.21	39.27
765.40	39.30
765.59	36.99
765.78	37.33
765.97	38.80
766.16	38.69
766.35	41.20
766.54	44.46
766.73	42.80
766.92	43.14
767.11	43.14
767.30	41.20
767.49	41.00
767.68	42.28
767.87	41.41
768.06	40.57
768.25	42.13
768.44	39.25
768.63	39.17
768.82	40.51
769.01	42.23
769.20	42.32
769.39	42.00
769.58	43.06
769.77	41.13
769.96	41.98
770.15	42.99
770.34	39.95
770.53	40.42
770.72	37.92
770.91	38.41
771.10	33.27
771.29	31.09
771.47	32.41
771.66	33.21
771.85	33.62
772.04	31.32
772.23	31.84
772.42	33.01
772.61	34.20
772.80	32.73
772.99	29.75
773.18	31.35
773.37	31.56
773.56	30.25
773.75	29.71
773.94	31.48
774.13	31.48
774.31	30.53
774.50	29.38
774.69	28.75
774.88	32.77
775.07	38.50
775.26	38.33
775.45	37.09
775.64	36.58
775.83	37.27
776.02	37.89
776.21	40.53
776.40	41.98
776.58	41.67
776.77	43.29
776.96	42.06
777.15	37.87
777.34	35.06
777.53	34.74
777.72	35.30
777.91	36.34
778.10	32.82
778.28	29.01
778.47	24.28
778.66	25.88
778.85	26.44
779.04	22.56
779.23	19.66
779.42	21.88
779.61	22.77
779.79	25.86
779.98	24.54
780.17	24.45
780.36	24.97
780.55	29.81
780.74	29.84
780.93	26.12
781.12	29.51
781.30	33.07
781.49	34.11
781.68	32.62
781.87	30.85
782.06	27.74
782.25	34.20
782.44	34.07
782.62	33.16
782.81	28.97
783.00	29.14
783.19	30.87
783.38	32.73
783.57	30.35
783.75	29.71
783.94	28.41
784.13	30.07
784.32	25.34
784.51	27.05
784.70	24.85
784.88	29.83
785.07	31.24
785.26	28.43
785.45	24.00
785.64	25.60
785.83	25.13
786.01	24.78
786.20	24.65
786.39	24.48
786.58	23.81
786.77	24.93
786.95	20.85
787.14	23.44
787.33	24.89
787.52	24.35
787.71	24.28
787.90	27.59
788.08	29.66
788.27	29.03
788.46	28.63
788.65	29.51
788.84	29.68
789.02	31.65
789.21	29.16
789.40	28.71
789.59	30.46
789.77	31.54
789.96	30.20
790.15	26.62
790.34	26.75
790.53	26.70
790.71	25.08
790.90	26.16
791.09	28.28
791.28	28.22
791.46	27.74
791.65	28.24
791.84	28.89
792.03	26.92
792.22	29.32
792.40	31.15
792.59	32.21
792.78	33.14
792.97	32.69
793.15	28.86
793.34	28.41
793.53	28.65
793.72	30.37
793.90	28.22
794.09	31.50
794.28	31.56
794.47	28.50
794.65	26.70
794.84	28.63
795.03	29.04
795.22	30.25
795.40	32.69
795.59	33.34
795.78	33.53
795.97	34.33
796.15	32.43
796.34	30.22
796.53	32.28
796.71	30.96
796.90	29.16
797.09	30.11
797.28	30.66
797.46	30.14
797.65	30.20
797.84	27.70
798.02	26.77
798.21	30.35
798.40	30.55
798.59	30.22
798.77	32.12
798.96	31.84
799.15	28.32
799.33	28.22
799.52	29.01
799.71	24.82
799.90	23.94
800.08	24.30
800.27	21.21
800.46	22.29
800.64	23.48
800.83	24.76
801.02	26.57
801.20	27.35
801.39	30.42
801.58	30.81
801.76	34.35
801.95	34.52
802.14	32.69
802.32	32.19
802.51	33.20
802.70	31.82
802.88	31.52
803.07	29.70
803.26	30.66
803.44	25.80
803.63	24.35
803.82	22.23
804.00	23.76
804.19	24.71
804.38	26.08
804.56	22.23
804.75	25.36
804.94	22.04
805.12	21.35
805.31	22.43
805.50	24.00
805.68	20.87
805.87	23.40
806.06	23.48
806.24	25.32
806.43	25.45
806.62	27.85
806.80	25.62
806.99	29.71
807.17	30.05
807.36	29.60
807.55	29.53
807.73	34.15
807.92	32.71
808.11	30.98
808.29	26.66
808.48	24.93
808.66	24.58
808.85	25.21
809.04	24.41
809.22	27.00
809.41	25.90
809.59	27.14
809.78	24.99
809.97	25.30
810.15	25.79
810.34	27.72
810.53	29.62
810.71	31.30
810.90	30.20
811.08	27.89
811.27	22.75
811.45	23.92
811.64	22.60
811.83	26.03
812.01	24.67
812.20	26.27
812.38	28.43
812.57	26.51
812.76	24.52
812.94	24.89
813.13	25.02
813.31	27.29
813.50	26.74
813.68	24.43
813.87	18.62
814.06	19.96
814.24	18.15
814.43	18.43
814.61	20.61
814.80	23.89
814.98	24.13
815.17	23.50
815.36	21.11
815.54	22.79
815.73	25.06
815.91	26.87
816.10	27.42
816.28	27.37
816.47	23.35
816.65	22.83
816.84	19.77
817.03	17.67
817.21	19.31
817.40	20.85
817.58	15.15
817.77	12.25
817.95	11.26
818.14	12.55
818.32	12.25
818.51	14.97
818.69	11.19
818.88	8.66
819.06	9.05
819.25	8.02
819.43	7.43
819.62	8.04
819.80	9.31
819.99	8.04
820.18	4.67
820.36	7.22
820.55	9.01
820.73	10.33
820.92	13.52
821.10	12.75
821.29	11.30
821.47	8.66
821.66	12.23
821.84	13.72
822.03	13.39
822.21	16.59
822.40	16.10
822.58	12.66
822.77	14.28
822.95	13.24
823.14	15.23
823.32	19.23
823.50	19.42
823.69	17.95
823.87	18.36
824.06	21.39
824.24	17.71
824.43	16.51
824.61	20.44
824.80	19.79
824.98	20.54
825.17	19.66
825.35	17.95
825.54	19.38
825.72	19.31
825.91	18.99
826.09	17.43
826.28	20.44
826.46	18.19
826.64	14.78
826.83	14.91
827.01	13.93
827.20	11.56
827.38	12.96
827.57	12.21
827.75	10.26
827.94	8.32
828.12	8.79
828.31	5.31
828.49	7.80
828.67	7.58
828.86	7.97
829.04	9.85
829.23	11.97
829.41	10.59
829.60	13.11
829.78	16.94
829.96	17.13
830.15	16.48
830.33	17.11
830.52	16.27
830.70	16.31
830.88	17.11
831.07	18.19
831.25	15.97
831.44	15.42
831.62	13.18
831.81	11.52
831.99	13.01
832.17	14.84
832.36	15.66
832.54	14.84
832.73	15.43
832.91	11.65
833.09	7.32
833.28	6.33
833.46	5.86
833.65	9.25
833.83	7.60
834.01	8.53
834.20	4.49
834.38	3.82
834.56	3.54
834.75	3.13
834.93	3.69
835.12	4.84
835.30	8.28
835.48	6.63
835.67	6.53
835.85	6.22
836.03	5.29
836.22	8.81
836.40	9.44
836.59	9.50
836.77	7.30
836.95	9.36
837.14	8.96
837.32	9.53
837.50	12.46
837.69	9.72
837.87	11.79
838.05	10.84
838.24	8.28
838.42	7.37
838.60	6.70
838.79	8.17
838.97	7.54
839.15	6.87
839.34	4.11
839.52	3.69
839.70	3.59
839.89	2.72
840.07	3.43
840.25	1.38
840.44	1.15
840.62	2.42
840.80	3.07
840.99	3.07
841.17	3.91
841.35	4.75
841.54	4.17
841.72	5.90
841.90	6.22
842.09	5.70
842.27	10.28
842.45	12.33
842.64	12.16
842.82	11.58
843.00	12.38
843.19	12.90
843.37	13.24
843.55	13.80
843.73	10.97
843.92	8.40
844.10	7.28
844.28	5.25
844.47	6.39
844.65	6.01
844.83	10.97
845.01	9.85
845.20	10.31
845.38	7.58
845.56	3.57
845.75	4.04
845.93	8.49
846.11	11.02
846.29	12.08
846.48	9.66
846.66	11.51
846.84	6.80
847.02	6.74
847.21	5.98
847.39	9.90
847.57	12.16
847.76	16.66
847.94	14.89
848.12	11.43
848.30	12.16
848.49	12.16
848.67	14.63
848.85	14.34
849.03	15.99
849.22	17.02
849.40	15.79
849.58	17.89
849.76	14.88
849.95	12.49
850.13	15.45
850.31	16.14
850.49	19.47
850.67	15.43
850.86	18.86
851.04	18.69
851.22	19.18
851.40	20.50
851.59	21.80
851.77	22.23
851.95	23.18
852.13	19.98
852.31	17.87
852.50	18.02
852.68	16.07
852.86	11.34
853.04	7.99
853.23	6.29
853.41	3.65
853.59	0.35
853.77	-3.05
853.95	-6.20
854.14	-2.83
854.32	-3.57
854.50	-6.74
854.68	-5.21
854.86	-4.32
855.04	-3.09
855.23	-1.95
855.41	-0.35
855.59	-0.93
855.77	3.31
855.95	9.20
856.14	6.68
856.32	7.02
856.50	6.35
856.68	6.94
856.86	8.92
857.04	6.70
857.23	4.86
857.41	6.35
857.59	6.72
857.77	6.59
857.95	3.15
858.13	5.94
858.32	5.06
858.50	5.88
858.68	5.94
858.86	7.47
859.04	8.23
859.22	8.81
859.41	6.67
859.59	10.07
859.77	7.73
859.95	8.45
860.13	10.71
860.31	12.73
860.49	13.40
860.68	13.11
860.86	10.18
861.04	11.21
861.22	10.93
861.40	11.75
861.58	12.66
861.76	13.14
861.94	13.27
862.13	9.64
862.31	9.83
862.49	10.26
862.67	8.55
862.85	7.00
863.03	7.65
863.21	7.24
863.39	6.89
863.57	2.51
863.76	4.15
863.94	5.68
864.12	6.76
864.30	8.40
864.48	6.63
864.66	8.43
864.84	7.22
865.02	4.95
865.20	4.99
865.38	6.57
865.57	7.09
865.75	5.73
865.93	3.57
866.11	0.11
866.29	-1.62
866.47	0.88
866.65	2.51
866.83	3.13
867.01	3.33
867.19	5.23
867.37	2.03
867.55	1.38
867.73	0.86
867.92	2.01
868.10	4.97
868.28	5.31
868.46	1.99
868.64	0.63
868.82	-0.07
869.00	1.92
869.18	-1.06
869.36	0.11
869.54	0.95
869.72	2.59
869.90	1.04
870.08	1.23
870.26	-0.09
870.44	-1.23
870.62	2.25
870.80	4.95
870.98	2.77
871.16	5.14
871.34	5.66
871.53	6.46
871.71	2.72
871.89	4.86
872.07	3.41
872.25	4.02
872.43	3.50
872.61	-1.25
872.79	-0.26
872.97	2.18
873.15	2.77
873.33	1.60
873.51	0.32
873.69	4.69
873.87	4.17
874.05	4.84
874.23	4.71
874.41	7.06
874.59	6.59
874.77	2.74
874.95	-0.91
875.13	-2.55
875.31	-2.29
875.49	-3.41
875.67	-6.87
875.85	-8.34
876.03	-7.15
876.21	-10.00
876.39	-9.46
876.57	-6.40
876.75	-4.80
876.93	-0.86
877.11	1.38
877.29	1.12
877.47	4.52
877.65	6.89
877.82	7.84
878.00	5.79
878.18	8.62
878.36	9.48
878.54	6.63
878.72	7.48
878.90	9.18
879.08	6.67
879.26	5.36
879.44	1.62
879.62	3.78
879.80	3.28
879.98	5.32
880.16	6.67
880.34	6.57
880.52	3.89
880.70	2.03
880.88	2.25
881.06	4.39
881.24	4.58
881.42	7.84
881.59	5.29
881.77	3.91
881.95	0.13
882.13	-2.92
882.31	-0.88
882.49	3.48
882.67	4.93
882.85	2.98
883.03	4.58
883.21	6.50
883.39	7.82
883.57	6.85
883.75	11.52
883.92	12.21
884.10	15.36
884.28	14.58
884.46	11.04
884.64	12.03
884.82	15.01
885.00	14.21
885.18	13.81
885.36	10.85
885.54	12.62
885.71	10.67
885.89	13.11
886.07	11.04
886.25	14.32
886.43	14.60
886.61	12.29
886.79	12.27
886.97	10.82
887.15	8.36
887.32	9.77
887.50	9.79
887.68	6.74
887.86	4.06
888.04	4.45
888.22	-0.95
888.40	-0.45
888.57	0.71
888.75	-2.35
888.93	-0.04
889.11	2.87
889.29	1.99
889.47	0.89
889.65	2.49
889.82	5.75
890.00	5.46
890.18	5.32
890.36	4.36
890.54	5.66
890.72	3.74
890.90	3.37
891.07	2.05
891.25	1.14
891.43	1.95
891.61	6.78
891.79	6.03
891.97	5.86
892.14	6.03
892.32	6.78
892.50	6.80
892.68	8.69
892.86	2.53
893.03	2.38
893.21	2.42
893.39	-0.80
893.57	-5.49
893.75	-7.73
893.93	-8.40
894.10	-7.80
894.28	-4.60
894.46	-3.59
894.64	-4.65
894.82	1.69
894.99	2.59
895.17	-0.50
895.35	2.74
895.53	4.19
895.71	5.08
895.88	4.47
896.06	2.01
896.24	3.41
896.42	3.41
896.59	6.37
896.77	3.57
896.95	4.23
897.13	7.54
897.31	7.58
897.48	7.56
897.66	10.07
897.84	10.57
898.02	11.38
898.19	7.50
898.37	4.67
898.55	6.55
898.73	9.36
898.91	6.18
899.08	5.40
899.26	3.70
899.44	3.93
899.62	0.61
899.79	0.02
899.97	1.10
900.15	3.76
900.33	3.24
900.50	-1.30
900.68	-5.27
900.86	-0.67
901.04	1.77
901.21	5.85
901.39	6.05
901.57	8.84
901.74	9.77
901.92	8.62
902.10	6.35
902.28	4.36
902.45	1.71
902.63	2.14
902.81	2.14
902.99	1.58
903.16	-0.26
903.34	-1.40
903.52	-1.69
903.69	-0.19
903.87	-0.56
904.05	-2.48
904.22	1.43
904.40	4.45
904.58	6.03
904.76	5.34
904.93	2.57
905.11	3.28
905.29	3.44
905.46	2.44
905.64	-0.15
905.82	1.47
905.99	2.81
906.17	3.37
906.35	5.77
906.53	6.80
906.70	5.75
906.88	6.93
907.06	6.11
907.23	4.34
907.41	3.78
907.59	7.02
907.76	5.88
907.94	6.53
908.12	5.62
908.29	6.27
908.47	2.98
908.65	2.18
908.82	3.11
909.00	1.77
909.18	3.91
909.35	3.52
909.53	0.45
909.71	-1.60
909.88	-1.04
910.06	0.39
910.23	0.35
910.41	-1.32
910.59	1.12
910.76	4.19
910.94	7.06
911.12	7.61
911.29	7.21
911.47	9.05
911.65	10.48
911.82	8.53
912.00	7.02
912.17	5.46
912.35	8.73
912.53	6.65
912.70	2.07
912.88	-0.15
913.06	-0.52
913.23	-2.35
913.41	-3.72
913.58	-0.80
913.76	-0.19
913.94	0.17
914.11	-1.08
914.29	-4.84
914.46	-4.78
914.64	0.28
914.82	-0.45
914.99	-2.66
915.17	2.68
915.34	4.47
915.52	2.53
915.70	2.53
915.87	3.17
916.05	2.14
916.22	6.61
916.40	7.00
916.57	3.50
916.75	3.09
916.93	3.35
917.10	-0.11
917.28	-1.62
917.45	-1.04
917.63	0.04
917.80	-2.25
917.98	-1.32
918.16	-1.82
918.33	-3.11
918.51	-2.61
918.68	-1.10
918.86	0.35
919.03	-0.32
919.21	-0.80
919.39	2.74
919.56	5.53
919.74	6.72
919.91	6.53
920.09	4.71
920.26	5.23
920.44	2.90
920.61	1.04
920.79	1.47
920.96	3.07
921.14	2.59
921.31	-3.67
921.49	-5.77
921.67	-4.34
921.84	-4.78
922.02	-0.91
922.19	-1.40
922.37	0.11
922.54	-1.84
922.72	-4.54
922.89	-1.56
923.07	-0.73
923.24	2.66
923.42	0.61
923.59	0.58
923.77	3.80
923.94	-1.15
924.12	-2.64
924.29	-0.63
924.47	1.94
924.64	4.23
924.82	3.22
924.99	4.67
925.17	2.79
925.34	7.21
925.52	7.48
925.69	5.10
925.87	8.15
926.04	11.00
926.22	11.10
926.39	10.11
926.57	11.88
926.74	12.18
926.91	11.10
927.09	12.25
927.26	9.36
927.44	6.50
927.61	4.21
927.79	4.62
927.96	4.80
928.14	-0.35
928.31	4.95
928.49	3.44
928.66	2.94
928.84	3.56
929.01	2.18
929.18	3.11
929.36	4.36
929.53	7.75
929.71	5.68
929.88	5.21
930.06	7.84
930.23	4.38
930.41	1.28
930.58	1.49
930.75	3.15
930.93	5.49
931.10	2.74
931.28	2.42
931.45	3.61
931.63	5.42
931.80	4.75
931.97	3.91
932.15	3.84
932.32	7.48
932.50	4.41
932.67	3.89
932.84	0.13
933.02	5.25
933.19	4.67
933.37	2.74
933.54	3.17
933.71	4.97
933.89	7.63
934.06	5.62
934.24	4.39
934.41	5.96
934.58	4.32
934.76	7.61
934.93	4.82
935.11	5.25
935.28	2.35
935.45	-0.22
935.63	-0.93
935.80	-4.47
935.98	-0.15
936.15	-0.97
936.32	-1.47
936.50	1.88
936.67	-0.82
936.84	-1.12
937.02	1.21
937.19	3.22
937.36	3.97
937.54	-0.04
937.71	3.57
937.89	0.22
938.06	-0.63
938.23	-3.52
938.41	-7.82
938.58	-5.16
938.75	-3.89
938.93	-4.64
939.10	-4.67
939.27	-3.50
939.45	1.53
939.62	0.22
939.79	3.72
939.97	4.06
940.14	8.81
940.31	10.37
940.49	6.80
940.66	6.93
940.83	5.08
941.01	5.90
941.18	4.97
941.35	1.68
941.53	3.31
941.70	3.30
941.87	4.52
942.05	2.72
942.22	2.20
942.39	6.78
942.57	4.62
942.74	5.66
942.91	2.87
943.08	1.27
943.26	4.00
943.43	1.99
943.60	1.06
943.78	3.43
943.95	1.97
944.12	1.51
944.29	-0.97
944.47	0.15
944.64	-1.97
944.81	0.26
944.99	0.52
945.16	-0.58
945.33	-1.23
945.50	-1.68
945.68	-3.87
945.85	-4.04
946.02	-3.18
946.20	-1.30
946.37	-2.22
946.54	0.99
946.71	1.19
946.89	3.54
947.06	3.61
947.23	4.82
947.40	3.57
947.58	4.84
947.75	6.14
947.92	6.53
948.09	4.06
948.27	3.48
948.44	0.17
948.61	-0.17
948.78	-2.25
948.96	-3.18
949.13	-2.61
949.30	-3.61
949.47	-4.97
949.65	-5.25
949.82	-4.97
949.99	-1.84
950.16	-1.95
950.33	-2.87
950.51	-5.25
950.68	-6.01
950.85	-3.30
951.02	-2.77
951.20	-0.60
951.37	-1.66
951.54	-1.75
951.71	-2.38
951.88	-5.21
952.06	-3.78
952.23	-1.14
952.40	0.78
952.57	3.33
952.74	0.04
952.92	-0.50
953.09	-1.73
953.26	-2.49
953.43	-2.83
953.60	-4.49
953.77	-1.01
953.95	-1.40
954.12	-2.16
954.29	-2.48
954.46	-3.74
954.63	-0.34
954.81	-1.56
954.98	0.54
955.15	2.79
955.32	2.87
955.49	4.41
955.66	2.25
955.84	2.70
956.01	2.94
956.18	4.08
956.35	5.73
956.52	2.36
956.69	0.76
956.87	-0.97
957.04	0.30
957.21	2.61
957.38	2.14
957.55	3.00
957.72	3.35
957.89	3.22
958.07	2.36
958.24	0.89
958.41	3.85
958.58	5.40
958.75	3.65
958.92	0.28
959.09	-2.31
959.26	-2.35
959.44	-2.64
959.61	-3.67
959.78	-1.82
959.95	1.17
960.12	0.45
960.29	-0.13
960.46	-2.74
960.63	-1.79
960.81	-2.31
960.98	-0.35
961.15	-0.13
961.32	-2.74
961.49	-1.69
961.66	-1.02
961.83	-1.88
962.00	-0.99
962.17	-6.18
962.34	-2.16
962.52	-1.69
962.69	-0.86
962.86	-4.90
963.03	-6.39
963.20	-3.76
963.37	-4.69
963.54	-6.61
963.71	-7.32
963.88	-7.63
964.05	-3.63
964.22	-4.80
964.39	-4.84
964.56	-4.32
964.74	-2.63
964.91	-0.34
965.08	-2.51
965.25	-1.88
965.42	-1.92
965.59	-3.85
965.76	-6.42
965.93	-5.98
966.10	-5.38
966.27	-7.54
966.44	-6.20
966.61	-2.46
966.78	-4.49
966.95	-3.02
967.12	-0.93
967.29	0.09
967.46	2.29
967.63	6.33
967.80	4.88
967.97	4.60
968.14	5.51
968.32	2.33
968.49	0.13
968.66	1.27
968.83	0.60
969.00	-3.48
969.17	-3.44
969.34	-5.29
969.51	-7.95
969.68	-4.69
969.85	-4.13
970.02	-4.04
970.19	-2.64
970.36	-2.38
970.53	-3.37
970.70	-4.69
970.87	-5.53
971.04	-6.09
971.21	-6.48
971.38	-5.73
971.55	-8.71
971.72	-8.10
971.89	-6.98
972.06	-6.53
972.23	-6.55
972.40	-3.97
972.57	-0.74
972.74	3.84
972.91	5.23
973.07	6.78
973.24	7.80
973.41	8.66
973.58	4.90
973.75	2.10
973.92	4.52
974.09	4.78
974.26	5.44
974.43	4.21
974.60	2.96
974.77	1.21
974.94	2.53
975.11	3.11
975.28	1.71
975.45	2.70
975.62	5.03
975.79	3.97
975.96	4.38
976.13	0.20
976.30	0.06
976.47	-1.81
976.64	-4.10
976.80	-8.04
976.97	-11.71
977.14	-10.95
977.31	-8.58
977.48	-9.87
977.65	-10.39
977.82	-11.32
977.99	-8.56
978.16	-8.82
978.33	-6.31
978.50	-2.96
978.67	-0.26
978.83	1.02
979.00	3.13
979.17	3.31
979.34	5.72
979.51	9.07
979.68	8.53
979.85	9.55
980.02	8.34
980.19	7.02
980.36	3.43
980.52	2.90
980.69	1.73
980.86	-0.58
981.03	-2.27
981.20	-1.45
981.37	-4.92
981.54	-5.60
981.71	-9.85
981.88	-9.33
982.04	-9.20
982.21	-8.14
982.38	-8.69
982.55	-7.82
982.72	-5.90
982.89	-8.23
983.06	-10.22
983.22	-9.05
983.39	-8.47
983.56	-5.86
983.73	-7.88
983.90	-6.83
984.07	-4.69
984.24	-3.56
984.40	-0.17
984.57	0.76
984.74	3.85
984.91	3.85
985.08	3.52
985.25	5.79
985.41	5.51
985.58	11.00
985.75	11.02
985.92	11.69
986.09	7.73
986.26	5.90
986.42	4.60
986.59	4.82
986.76	5.40
986.93	5.06
987.10	4.82
987.27	3.31
987.43	2.16
987.60	0.24
987.77	0.84
987.94	3.67
988.11	4.69
988.27	-0.30
988.44	-0.34
988.61	3.91
988.78	1.82
988.95	2.31
989.11	3.98
989.28	2.40
989.45	1.08
989.62	0.22
989.79	4.06
989.95	4.06
990.12	5.36
990.29	6.07
990.46	3.11
990.62	4.62
990.79	4.52
990.96	4.04
991.13	2.77
991.30	4.41
991.46	0.88
991.63	-1.82
991.80	-4.67
991.97	-3.84
992.13	-1.81
992.30	-4.08
992.47	-3.89
992.64	-4.93
992.80	-3.33
992.97	-1.36
993.14	-2.63
993.31	-0.34
993.47	-2.36
993.64	-0.20
993.81	2.18
993.98	-2.81
994.14	-2.27
994.31	-2.33
994.48	-4.39
994.64	-5.31
994.81	-6.26
994.98	-6.85
995.15	-3.37
995.31	-1.06
995.48	-0.32
995.65	1.15
995.82	4.36
995.98	5.92
996.15	7.50
996.32	10.56
996.48	12.47
996.65	13.40
996.82	16.87
996.99	13.14
997.15	12.38
997.32	12.38
997.49	11.99
997.65	11.10
997.82	10.24
997.99	7.80
998.15	6.11
998.32	5.10
998.49	4.38
998.65	5.10
998.82	4.80
998.99	3.70
999.15	1.23
999.32	-0.67
999.49	-1.23
999.65	-1.41
999.82	-3.41
999.99	-2.27
1000.15	-4.24
1000.32	-5.73
1000.49	-8.99
1000.65	-7.04
1000.82	-6.16
1000.99	-4.75
1001.15	-3.84
1001.32	-3.46
1001.49	-4.39
1001.65	-5.75
1001.82	-8.90
1001.99	-8.17
1002.15	-5.94
1002.32	-3.93
1002.49	-4.93
1002.65	-4.11
1002.82	-2.77
1002.99	-4.36
1003.15	-3.95
1003.32	-3.82
1003.48	0.34
1003.65	1.23
1003.82	1.88
1003.98	2.49
1004.15	-1.02
1004.32	-0.89
1004.48	0.50
1004.65	1.40
1004.81	3.89
1004.98	3.28
1005.15	4.00
1005.31	3.63
1005.48	4.69
1005.64	2.44
1005.81	3.18
1005.98	5.08
1006.14	3.54
1006.31	1.08
1006.47	-2.63
1006.64	-4.52
1006.81	-4.86
1006.97	-3.72
1007.14	-4.06
1007.30	-1.77
1007.47	1.02
1007.63	-2.59
1007.80	-2.59
1007.97	0.52
1008.13	-0.67
1008.30	-0.24
1008.46	2.42
1008.63	2.38
1008.79	0.24
1008.96	-0.20
1009.13	-4.56
1009.29	-5.23
1009.46	-4.90
1009.62	-5.40
1009.79	-9.90
1009.95	-7.21
1010.12	-5.29
1010.28	-11.28
1010.45	-15.17
1010.62	-13.44
1010.78	-12.12
1010.95	-8.92
1011.11	-8.36
1011.28	-6.20
1011.44	-5.83
1011.61	-4.36
1011.77	-5.94
1011.94	-7.47
1012.10	-2.18
1012.27	1.53
1012.43	0.15
1012.60	-1.01
1012.76	-3.02
1012.93	-4.26
1013.10	-4.88
1013.26	-3.02
1013.43	-1.88
1013.59	-2.16
1013.76	0.52
1013.92	-0.67
1014.09	-1.17
1014.25	-2.18
1014.42	-2.70
1014.58	-1.86
1014.75	-4.26
1014.91	-8.40
1015.08	-7.93
1015.24	-7.15
1015.41	-6.91
1015.57	-7.75
1015.73	-9.03
1015.90	-7.30
1016.06	-5.66
1016.23	-4.06
1016.39	-5.64
1016.56	-2.96
1016.72	-2.48
1016.89	-4.17
1017.05	-3.26
1017.22	-3.28
1017.38	-2.38
1017.55	-4.97
1017.71	-7.11
1017.88	-7.89
1018.04	-7.11
1018.21	-6.46
1018.37	-6.65
1018.53	-5.57
1018.70	-5.81
1018.86	-5.86
1019.03	-3.07
1019.19	-4.69
1019.36	1.06
1019.52	1.84
1019.69	2.35
1019.85	2.70
1020.01	2.61
1020.18	3.37
1020.34	6.44
1020.51	4.47
1020.67	0.86
1020.84	1.34
1021.00	1.43
1021.16	0.86
1021.33	-0.47
1021.49	-1.49
1021.66	-0.93
1021.82	-0.37
1021.98	-1.01
1022.15	1.51
1022.31	3.33
1022.48	3.03
1022.64	1.51
1022.80	2.40
1022.97	1.88
1023.13	8.32
1023.30	8.75
1023.46	7.30
1023.62	7.09
1023.79	7.43
1023.95	6.81
1024.12	6.24
1024.28	8.25
1024.44	8.17
1024.61	9.18
1024.77	8.32
1024.93	6.09
1025.10	5.03
1025.26	6.48
1025.43	6.61
1025.59	6.27
1025.75	3.44
1025.92	5.25
1026.08	3.03
1026.24	1.90
1026.41	1.79
1026.57	3.48
1026.73	-0.17
1026.90	1.69
1027.06	-0.82
1027.23	-1.51
1027.39	-3.93
1027.55	-5.12
1027.72	-4.45
1027.88	2.48
1028.04	1.32
1028.21	2.40
1028.37	-0.43
1028.53	1.55
1028.70	1.14
1028.86	1.06
1029.02	-0.15
1029.19	3.59
1029.35	6.39
1029.51	8.36
1029.67	4.30
1029.84	7.11
1030.00	2.12
1030.16	2.53
1030.33	0.88
1030.49	0.48
1030.65	1.14
1030.82	4.19
1030.98	2.79
1031.14	1.68
1031.31	-1.99
1031.47	-1.95
1031.63	-4.08
1031.79	-2.20
1031.96	-1.68
1032.12	-1.40
1032.28	1.58
1032.45	1.75
1032.61	0.60
1032.77	1.45
1032.93	0.93
1033.10	0.63
1033.26	-1.49
1033.42	0.48
1033.58	2.74
1033.75	2.35
1033.91	-0.63
1034.07	-3.39
1034.24	-3.65
1034.40	-1.84
1034.56	-3.63
1034.72	-2.92
1034.89	-1.23
1035.05	3.26
1035.21	-0.54
1035.37	0.22
1035.54	-1.53
1035.70	2.18
1035.86	2.85
1036.02	3.65
1036.19	3.87
1036.35	5.81
1036.51	5.47
1036.67	4.77
1036.83	2.03
1037.00	5.14
1037.16	2.33
1037.32	4.34
1037.48	6.33
1037.65	6.78
1037.81	6.94
1037.97	7.67
1038.13	7.73
1038.29	7.45
1038.46	7.04
1038.62	6.22
1038.78	8.28
1038.94	9.50
1039.10	10.78
1039.27	6.42
1039.43	4.47
1039.59	0.74
1039.75	-0.73
1039.91	-1.88
1040.08	-1.01
1040.24	-1.68
1040.40	0.56
1040.56	-0.58
1040.72	-1.34
1040.89	-0.39
1041.05	1.01
1041.21	2.53
1041.37	5.47
1041.53	6.55
1041.69	7.52
1041.86	2.44
1042.02	0.07
1042.18	-2.05
1042.34	-2.27
1042.50	-0.67
1042.66	-4.43
1042.83	-3.44
1042.99	-5.70
1043.15	-6.16
1043.31	-6.87
1043.47	-8.88
1043.63	-5.60
1043.79	-2.10
1043.96	-3.11
1044.12	-3.54
1044.28	-4.23
1044.44	-5.44
1044.60	-5.55
1044.76	-3.85
1044.92	-4.92
1045.09	-4.86
1045.25	-4.51
1045.41	-1.28
1045.57	-2.25
1045.73	-1.64
1045.89	-1.84
1046.05	-3.52
1046.21	25.39
1046.38	-6.14
1046.54	-12.49
1046.70	9.42
1046.86	-4.10
>>>>>End Processed Spectral Data<<<<<
