SpectraSuite Data File
++++++++++++++++++++++++++++++++++++
Date: Mon May 06 13:47:27 CDT 2013
User: Students
Dark Spectrum Present: Yes
Reference Spectrum Present: Yes
Number of Sampled Component Spectra: 1
Spectrometers: USB4H00887
Integration Time (usec): 100000 (USB4H00887)
Spectra Averaged: 10 (USB4H00887)
Boxcar Smoothing: 5 (USB4H00887)
Correct for Electrical Dark: No (USB4H00887)
Strobe/Lamp Enabled: No (USB4H00887)
Correct for Detector Non-linearity: No (USB4H00887)
Correct for Stray Light: No (USB4H00887)
Number of Pixels in Processed Spectrum: 3648
>>>>>Begin Processed Spectral Data<<<<<
345.83	-3.89
346.05	-3.89
346.26	-3.89
346.48	4.10
346.70	5.94
346.92	0.15
347.14	-0.74
347.35	0.76
347.57	-0.82
347.79	-2.31
348.01	-2.70
348.23	-0.54
348.44	-1.32
348.66	-4.65
348.88	-5.44
349.10	-4.92
349.32	-0.95
349.53	-0.07
349.75	-0.30
349.97	3.56
350.19	7.88
350.41	9.48
350.62	8.06
350.84	7.73
351.06	9.03
351.28	11.99
351.50	14.11
351.71	12.18
351.93	12.55
352.15	11.43
352.37	8.71
352.58	5.19
352.80	4.56
353.02	4.71
353.24	5.49
353.46	5.47
353.67	2.36
353.89	0.91
354.11	1.10
354.33	1.01
354.54	-0.93
354.76	-1.71
354.98	-0.11
355.20	-2.66
355.41	-3.37
355.63	-5.73
355.85	-7.41
356.07	-7.88
356.28	-10.41
356.50	-10.82
356.72	-9.61
356.94	-6.44
357.15	-5.64
357.37	-8.19
357.59	-4.97
357.81	-9.85
358.02	-9.35
358.24	-5.53
358.46	-0.37
358.68	1.53
358.89	1.49
359.11	0.24
359.33	-0.13
359.55	-0.41
359.76	2.55
359.98	2.33
360.20	8.55
360.42	8.42
360.63	4.41
360.85	0.04
361.07	-0.43
361.29	-1.64
361.50	-0.43
361.72	-1.10
361.94	-0.78
362.15	-2.53
362.37	-2.53
362.59	-4.77
362.81	-4.06
363.02	-1.02
363.24	0.20
363.46	-0.61
363.68	-0.09
363.89	-1.08
364.11	-2.25
364.33	-2.29
364.54	-1.47
364.76	-1.60
364.98	1.75
365.20	2.18
365.41	-0.91
365.63	-0.63
365.85	-1.12
366.06	0.88
366.28	0.09
366.50	1.19
366.71	1.71
366.93	0.97
367.15	0.76
367.37	2.09
367.58	2.29
367.80	6.40
368.02	6.94
368.23	7.95
368.45	5.75
368.67	6.68
368.88	7.60
369.10	7.13
369.32	8.49
369.53	8.01
369.75	8.47
369.97	6.44
370.19	6.33
370.40	6.26
370.62	9.36
370.84	10.41
371.05	10.07
371.27	9.36
371.49	9.70
371.70	6.31
371.92	6.59
372.14	0.24
372.35	3.00
372.57	1.97
372.79	2.46
373.00	0.65
373.22	-1.08
373.44	-2.79
373.65	-3.37
373.87	-2.89
374.09	-2.09
374.30	-0.35
374.52	1.27
374.74	-1.04
374.95	-2.92
375.17	-1.95
375.39	-4.58
375.60	-5.57
375.82	-2.51
376.04	-0.06
376.25	1.15
376.47	3.74
376.68	0.61
376.90	5.62
377.12	8.25
377.33	7.93
377.55	5.38
377.77	9.14
377.98	11.62
378.20	12.14
378.42	11.30
378.63	10.35
378.85	10.46
379.07	11.49
379.28	5.99
379.50	4.97
379.71	8.10
379.93	8.84
380.15	8.53
380.36	9.55
380.58	7.00
380.80	7.71
381.01	7.69
381.23	5.23
381.44	6.89
381.66	8.10
381.88	8.56
382.09	6.13
382.31	8.64
382.53	6.78
382.74	7.30
382.96	9.74
383.17	7.75
383.39	8.01
383.61	10.74
383.82	6.94
384.04	6.13
384.25	6.05
384.47	5.36
384.69	0.82
384.90	2.10
385.12	-2.96
385.33	-4.19
385.55	-3.02
385.77	-5.66
385.98	-8.45
386.20	-8.53
386.41	-5.31
386.63	-7.09
386.85	-3.72
387.06	-3.41
387.28	-2.46
387.49	1.69
387.71	1.82
387.93	-1.08
388.14	1.66
388.36	2.35
388.57	6.14
388.79	4.24
389.01	6.91
389.22	4.93
389.44	5.66
389.65	5.06
389.87	6.03
390.08	5.62
390.30	8.56
390.52	7.82
390.73	8.86
390.95	7.78
391.16	4.41
391.38	2.27
391.59	2.29
391.81	1.88
392.03	0.24
392.24	-1.28
392.46	-1.06
392.67	0.09
392.89	1.15
393.10	0.41
393.32	-0.09
393.53	3.98
393.75	4.08
393.97	4.95
394.18	7.93
394.40	7.07
394.61	8.02
394.83	5.51
395.04	4.77
395.26	4.78
395.47	5.53
395.69	6.09
395.91	4.17
396.12	4.15
396.34	4.82
396.55	4.99
396.77	8.04
396.98	6.11
397.20	9.03
397.41	7.73
397.63	6.91
397.84	4.04
398.06	3.18
398.27	7.47
398.49	8.30
398.71	8.21
398.92	6.70
399.14	6.07
399.35	6.05
399.57	2.48
399.78	4.10
400.00	4.21
400.21	5.47
400.43	6.65
400.64	3.50
400.86	4.24
401.07	4.95
401.29	4.62
401.50	3.00
401.72	1.12
401.93	3.80
402.15	1.04
402.36	-0.86
402.58	1.90
402.79	-0.45
403.01	-1.36
403.22	-1.60
403.44	-3.09
403.65	-1.73
403.87	3.02
404.08	8.69
404.30	6.55
404.51	9.50
404.73	10.31
404.94	8.92
405.16	12.12
405.37	13.37
405.59	14.26
405.80	12.06
406.02	10.07
406.23	6.22
406.45	1.41
406.66	4.47
406.88	-1.08
407.09	-0.97
407.31	-0.43
407.52	-3.63
407.74	-3.33
407.95	-4.11
408.17	0.32
408.38	0.56
408.60	0.19
408.81	1.81
409.03	1.06
409.24	5.23
409.45	7.19
409.67	3.74
409.88	6.11
410.10	3.02
410.31	3.00
410.53	-2.66
410.74	-4.73
410.96	-7.00
411.17	-6.80
411.39	-6.89
411.60	-5.83
411.82	-4.90
412.03	-1.30
412.24	-4.00
412.46	-1.45
412.67	-4.73
412.89	-4.19
413.10	-3.20
413.32	-1.28
413.53	-1.73
413.75	-1.99
413.96	-5.06
414.17	-7.22
414.39	-9.16
414.60	-9.10
414.82	-11.21
415.03	-10.46
415.25	-6.07
415.46	-1.60
415.68	-0.24
415.89	4.86
416.10	3.18
416.32	3.97
416.53	2.40
416.75	2.66
416.96	3.46
417.18	5.49
417.39	5.32
417.60	2.51
417.82	-0.47
418.03	-1.69
418.25	-5.05
418.46	0.47
418.67	1.71
418.89	4.30
419.10	5.29
419.32	6.59
419.53	4.32
419.75	6.61
419.96	5.68
420.17	3.43
420.39	4.93
420.60	4.21
420.82	-1.06
421.03	-2.76
421.24	-5.85
421.46	-7.56
421.67	-8.88
421.89	-5.68
422.10	-5.88
422.31	-2.25
422.53	1.94
422.74	2.38
422.96	2.72
423.17	4.58
423.38	6.83
423.60	7.13
423.81	10.11
424.03	12.53
424.24	10.15
424.45	10.02
424.67	8.21
424.88	7.13
425.09	4.19
425.31	-0.26
425.52	0.30
425.74	-0.24
425.95	3.24
426.16	2.18
426.38	-0.54
426.59	0.71
426.80	0.43
427.02	1.56
427.23	2.51
427.45	4.02
427.66	9.10
427.87	8.56
428.09	8.69
428.30	8.40
428.51	9.10
428.73	9.36
428.94	9.27
429.15	9.20
429.37	8.79
429.58	6.59
429.79	6.20
430.01	4.06
430.22	3.89
430.44	2.42
430.65	-0.19
430.86	0.50
431.08	1.77
431.29	2.81
431.50	1.21
431.72	-0.80
431.93	-0.67
432.14	0.07
432.36	-0.82
432.57	2.07
432.78	2.74
433.00	1.90
433.21	0.76
433.42	1.01
433.64	2.42
433.85	8.49
434.06	11.84
434.28	10.82
434.49	9.27
434.70	9.33
434.92	8.62
435.13	10.85
435.34	13.37
435.56	12.75
435.77	11.64
435.98	9.53
436.20	6.26
436.41	4.60
436.62	6.44
436.83	5.90
437.05	10.65
437.26	11.86
437.47	9.20
437.69	10.15
437.90	11.28
438.11	12.40
438.33	10.05
438.54	9.42
438.75	10.82
438.97	10.05
439.18	12.34
439.39	10.50
439.60	10.65
439.82	12.36
440.03	10.30
440.24	9.23
440.46	7.93
440.67	10.00
440.88	8.86
441.10	7.63
441.31	7.91
441.52	8.71
441.73	7.56
441.95	5.77
442.16	3.00
442.37	0.43
442.58	2.14
442.80	0.97
443.01	3.61
443.22	4.69
443.44	4.02
443.65	4.41
443.86	4.15
444.07	5.05
444.29	0.11
444.50	2.22
444.71	5.36
444.92	2.98
445.14	4.43
445.35	2.89
445.56	3.80
445.78	2.92
445.99	2.18
446.20	1.02
446.41	-0.19
446.63	5.73
446.84	7.09
447.05	7.99
447.26	12.10
447.48	14.32
447.69	13.35
447.90	11.17
448.11	13.85
448.33	14.00
448.54	15.64
448.75	12.73
448.96	10.28
449.18	9.61
449.39	9.57
449.60	7.34
449.81	6.35
450.03	6.52
450.24	7.39
450.45	7.41
450.66	8.55
450.87	6.11
451.09	8.79
451.30	8.88
451.51	10.82
451.72	10.48
451.94	8.64
452.15	9.48
452.36	9.96
452.57	9.33
452.78	7.84
453.00	7.19
453.21	7.67
453.42	8.68
453.63	10.93
453.85	9.10
454.06	10.95
454.27	13.24
454.48	10.65
454.69	11.13
454.91	14.69
455.12	16.23
455.33	18.39
455.54	20.91
455.75	22.42
455.97	18.45
456.18	21.99
456.39	22.02
456.60	22.70
456.81	24.13
457.03	26.81
457.24	26.77
457.45	27.03
457.66	27.22
457.87	28.58
458.09	28.80
458.30	32.04
458.51	30.50
458.72	31.41
458.93	30.20
459.15	33.68
459.36	35.00
459.57	36.49
459.78	36.62
459.99	35.54
460.20	35.26
460.42	35.65
460.63	40.48
460.84	42.67
461.05	43.19
461.26	44.83
461.47	47.66
461.69	46.17
461.90	46.51
462.11	49.19
462.32	54.53
462.53	55.46
462.74	58.80
462.96	59.84
463.17	62.85
463.38	63.30
463.59	65.01
463.80	65.61
464.01	67.42
464.23	70.36
464.44	72.35
464.65	72.68
464.86	76.41
465.07	75.83
465.28	75.50
465.49	76.46
465.71	79.70
465.92	81.99
466.13	81.60
466.34	83.82
466.55	84.84
466.76	86.65
466.97	88.96
467.19	90.73
467.40	92.81
467.61	95.53
467.82	96.53
468.03	101.23
468.24	103.65
468.45	109.99
468.66	113.94
468.88	118.45
469.09	121.46
469.30	124.44
469.51	128.02
469.72	129.60
469.93	133.12
470.14	135.04
470.35	135.09
470.57	137.62
470.78	138.83
470.99	142.18
471.20	143.17
471.41	145.26
471.62	151.79
471.83	155.22
472.04	162.03
472.25	167.13
472.47	174.78
472.68	181.34
472.89	186.09
473.10	189.46
473.31	193.18
473.52	199.27
473.73	206.17
473.94	207.07
474.15	211.33
474.36	214.07
474.57	217.70
474.79	221.05
475.00	224.22
475.21	228.26
475.42	230.43
475.63	233.67
475.84	237.01
476.05	240.84
476.26	244.02
476.47	246.85
476.68	252.55
476.89	258.45
477.10	264.93
477.32	270.54
477.53	279.49
477.74	285.43
477.95	292.90
478.16	298.52
478.37	302.37
478.58	308.59
478.79	315.55
479.00	320.51
479.21	321.70
479.42	323.43
479.63	328.20
479.84	330.99
480.05	337.95
480.26	343.07
480.47	349.05
480.69	355.62
480.90	361.02
481.11	365.36
481.32	372.86
481.53	381.91
481.74	387.90
481.95	392.37
482.16	395.57
482.37	401.72
482.58	406.93
482.79	411.47
483.00	416.74
483.21	421.83
483.42	431.97
483.63	435.62
483.84	440.31
484.05	449.01
484.26	454.69
484.47	464.46
484.68	469.38
484.89	472.60
485.10	474.63
485.31	479.67
485.52	486.06
485.73	485.18
485.94	489.39
486.15	494.38
486.37	497.81
486.58	498.42
486.79	500.13
487.00	501.32
487.21	509.44
487.42	517.80
487.63	523.16
487.84	524.34
488.05	531.88
488.26	538.45
488.47	539.49
488.68	541.84
488.89	549.71
489.10	555.02
489.31	561.65
489.52	560.66
489.73	564.48
489.94	568.14
490.15	574.36
490.36	577.69
490.57	579.22
490.78	584.75
490.99	586.07
491.20	589.35
491.41	590.97
491.62	591.04
491.83	593.17
492.04	593.18
492.25	593.17
492.45	594.47
492.66	595.14
492.87	595.64
493.08	596.72
493.29	599.12
493.50	601.38
493.71	604.37
493.92	608.17
494.13	614.43
494.34	614.39
494.55	613.20
494.76	615.82
494.97	617.26
495.18	621.84
495.39	622.45
495.60	623.14
495.81	624.17
496.02	624.91
496.23	623.48
496.44	626.83
496.65	632.82
496.86	641.89
497.07	641.46
497.28	643.14
497.49	640.36
497.70	643.83
497.91	647.08
498.12	646.30
498.32	649.75
498.53	655.09
498.74	652.45
498.95	649.86
499.16	648.83
499.37	651.18
499.58	651.91
499.79	653.97
500.00	653.64
500.21	650.64
500.42	656.04
500.63	658.94
500.84	658.50
501.05	662.70
501.26	667.99
501.46	671.96
501.67	671.96
501.88	671.99
502.09	676.74
502.30	677.77
502.51	681.15
502.72	680.78
502.93	676.50
503.14	678.83
503.35	678.47
503.56	680.28
503.77	676.78
503.97	679.91
504.18	684.71
504.39	687.50
504.60	691.71
504.81	695.01
505.02	697.11
505.23	698.26
505.44	702.01
505.65	702.10
505.86	701.65
506.07	706.96
506.27	710.83
506.48	711.78
506.69	713.48
506.90	716.29
507.11	718.73
507.32	721.52
507.53	728.85
507.74	731.78
507.95	736.06
508.15	741.72
508.36	740.27
508.57	744.57
508.78	748.03
508.99	749.63
509.20	749.85
509.41	752.37
509.62	753.54
509.82	755.46
510.03	754.27
510.24	756.76
510.45	756.82
510.66	763.11
510.87	763.74
511.08	764.36
511.29	769.05
511.49	772.83
511.70	776.70
511.91	784.11
512.12	786.16
512.33	793.77
512.54	796.03
512.75	801.24
512.95	805.45
513.16	807.74
513.37	811.22
513.58	809.99
513.79	814.14
514.00	818.57
514.20	818.03
514.41	820.27
514.62	821.83
514.83	827.16
515.04	830.82
515.25	830.23
515.46	836.67
515.66	843.17
515.87	850.48
516.08	852.12
516.29	854.10
516.50	856.31
516.71	858.36
516.91	860.72
517.12	864.45
517.33	864.75
517.54	866.27
517.75	861.00
517.95	860.46
518.16	861.41
518.37	866.14
518.58	866.29
518.79	871.80
519.00	873.66
519.20	873.57
519.41	872.64
519.62	877.57
519.83	882.28
520.04	884.16
520.24	885.26
520.45	887.18
520.66	885.13
520.87	887.89
521.08	883.98
521.28	885.60
521.49	888.28
521.70	889.47
521.91	888.87
522.12	888.86
522.32	893.10
522.53	892.97
522.74	889.10
522.95	887.07
523.16	886.47
523.36	887.81
523.57	884.63
523.78	879.81
523.99	877.44
524.20	871.24
524.40	871.37
524.61	869.92
524.82	868.36
525.03	869.18
525.23	870.07
525.44	868.19
525.65	869.03
525.86	871.26
526.06	874.48
526.27	872.99
526.48	873.72
526.69	868.25
526.90	866.76
527.10	862.81
527.31	861.86
527.52	861.28
527.73	858.84
527.93	850.69
528.14	847.52
528.35	843.04
528.56	838.94
528.76	837.77
528.97	834.29
529.18	831.38
529.39	828.94
529.59	823.43
529.80	817.23
530.01	811.80
530.22	812.24
530.42	805.86
530.63	801.09
530.84	797.57
531.05	792.82
531.25	789.44
531.46	783.63
531.67	777.91
531.88	770.87
532.08	764.71
532.29	762.33
532.50	756.45
532.70	754.71
532.91	748.89
533.12	748.96
533.33	741.74
533.53	737.55
533.74	731.26
533.95	730.08
534.15	726.38
534.36	722.67
534.57	714.85
534.78	707.07
534.98	698.04
535.19	694.08
535.40	683.61
535.60	678.96
535.81	670.77
536.02	665.74
536.23	660.02
536.43	656.02
536.64	654.38
536.85	652.11
537.05	652.45
537.26	649.63
537.47	643.64
537.67	637.51
537.88	629.90
538.09	628.84
538.30	625.36
538.50	620.89
538.71	615.12
538.92	607.24
539.12	601.41
539.33	593.59
539.54	586.37
539.74	579.93
539.95	576.13
540.16	574.53
540.36	567.85
540.57	562.09
540.78	556.32
540.98	552.93
541.19	549.95
541.40	546.34
541.60	542.75
541.81	537.98
542.02	534.52
542.22	528.95
542.43	521.90
542.64	517.24
542.84	513.05
543.05	508.27
543.26	502.33
543.46	494.53
543.67	486.58
543.88	476.45
544.08	474.66
544.29	467.10
544.50	461.41
544.70	458.43
544.91	453.98
545.12	449.73
545.32	444.43
545.53	442.77
545.74	439.90
545.94	434.30
546.15	430.41
546.35	420.24
546.56	419.14
546.77	414.70
546.97	409.61
547.18	402.33
547.39	394.35
547.59	388.59
547.80	381.50
548.01	374.61
548.21	372.34
548.42	370.94
548.62	369.97
548.83	365.60
549.04	364.91
549.24	361.43
549.45	356.09
549.65	353.67
549.86	350.44
550.07	346.07
550.27	342.49
550.48	337.78
550.69	336.18
550.89	333.84
551.10	331.36
551.30	328.03
551.51	324.79
551.72	324.25
551.92	322.57
552.13	318.14
552.33	314.94
552.54	312.82
552.75	308.78
552.95	302.63
553.16	299.52
553.36	296.62
553.57	291.56
553.78	285.88
553.98	284.13
554.19	284.02
554.39	280.87
554.60	278.41
554.80	273.29
555.01	271.50
555.22	268.69
555.42	264.93
555.63	260.67
555.83	261.21
556.04	265.58
556.25	262.16
556.45	258.68
556.66	259.72
556.86	255.49
557.07	256.03
557.27	255.20
557.48	254.34
557.68	252.78
557.89	250.37
558.10	248.57
558.30	243.04
558.51	242.85
558.71	239.76
558.92	239.28
559.12	239.33
559.33	239.04
559.54	235.55
559.74	234.85
559.95	234.44
560.15	234.55
560.36	232.97
560.56	232.13
560.77	230.77
560.97	226.41
561.18	224.35
561.38	222.71
561.59	222.58
561.79	222.89
562.00	222.65
562.21	221.46
562.41	222.07
562.62	220.06
562.82	218.87
563.03	215.50
563.23	214.76
563.44	213.36
563.64	215.15
563.85	215.39
564.05	213.32
564.26	209.71
564.46	208.84
564.67	207.79
564.87	204.13
565.08	201.71
565.28	202.41
565.49	203.01
565.69	202.62
565.90	200.61
566.10	192.51
566.31	193.51
566.51	193.50
566.72	193.66
566.92	190.70
567.13	191.75
567.33	191.15
567.54	192.62
567.74	193.70
567.95	192.56
568.15	192.21
568.36	194.61
568.56	190.57
568.77	188.93
568.97	187.09
569.18	189.10
569.38	189.53
569.59	189.60
569.79	184.47
570.00	183.40
570.20	182.36
570.41	178.28
570.61	178.99
570.82	182.23
571.02	183.68
571.23	182.29
571.43	179.51
571.64	178.01
571.84	175.03
572.05	175.23
572.25	173.80
572.45	173.31
572.66	175.81
572.86	176.55
573.07	173.76
573.27	171.69
573.48	174.88
573.68	173.61
573.89	172.74
574.09	173.89
574.30	175.40
574.50	177.34
574.70	176.07
574.91	174.58
575.11	173.09
575.32	172.49
575.52	173.98
575.73	170.71
575.93	172.20
576.14	169.91
576.34	172.89
576.54	172.96
576.75	168.08
576.95	166.57
577.16	166.11
577.36	167.49
577.57	167.73
577.77	167.39
577.97	170.30
578.18	167.97
578.38	170.54
578.59	164.43
578.79	162.39
579.00	164.60
579.20	166.89
579.40	169.44
579.61	169.78
579.81	170.86
580.02	167.69
580.22	167.75
580.42	169.66
580.63	167.77
580.83	171.60
581.04	173.63
581.24	172.03
581.45	170.61
581.65	165.70
581.85	161.21
582.06	158.77
582.26	161.19
582.47	158.44
582.67	156.24
582.87	156.11
583.08	152.74
583.28	152.95
583.48	152.98
583.69	152.57
583.89	153.17
584.10	153.32
584.30	152.48
584.50	152.83
584.71	150.56
584.91	149.48
585.12	152.72
585.32	152.44
585.52	153.13
585.73	157.56
585.93	155.03
586.13	153.00
586.34	153.08
586.54	153.91
586.75	150.77
586.95	148.98
587.15	149.32
587.36	147.92
587.56	149.45
587.76	146.13
587.97	141.14
588.17	141.12
588.37	144.08
588.58	143.95
588.78	142.22
588.98	144.44
589.19	147.58
589.39	150.04
589.60	144.64
589.80	147.10
590.00	147.66
590.21	147.38
590.41	148.46
590.61	147.81
590.82	145.59
591.02	150.90
591.22	149.13
591.43	148.31
591.63	147.08
591.83	150.40
592.04	149.80
592.24	148.55
592.44	147.73
592.65	145.87
592.85	144.98
593.05	144.33
593.26	139.02
593.46	138.28
593.66	135.07
593.86	135.91
594.07	136.92
594.27	135.28
594.47	148.96
594.68	151.46
594.88	149.15
595.08	149.11
595.29	150.94
595.49	150.04
595.69	148.87
595.90	151.10
596.10	147.10
596.30	143.80
596.50	141.59
596.71	128.05
596.91	128.80
597.11	131.80
597.32	133.53
597.52	131.42
597.72	133.79
597.93	134.66
598.13	134.66
598.33	137.94
598.53	135.58
598.74	137.27
598.94	137.34
599.14	134.83
599.35	136.53
599.55	137.87
599.75	140.66
599.95	140.43
600.16	138.83
600.36	138.20
600.56	135.58
600.76	139.21
600.97	140.47
601.17	139.49
601.37	137.94
601.58	137.21
601.78	134.07
601.98	134.38
602.18	135.11
602.39	136.88
602.59	136.77
602.79	136.06
602.99	134.18
603.20	129.64
603.40	129.92
603.60	126.40
603.80	124.22
604.01	125.17
604.21	122.34
604.41	122.19
604.61	122.32
604.82	120.63
605.02	122.39
605.22	123.83
605.42	124.80
605.62	124.67
605.83	125.11
606.03	124.80
606.23	121.13
606.43	123.19
606.64	120.20
606.84	123.32
607.04	124.11
607.24	126.12
607.45	125.84
607.65	125.58
607.85	125.45
608.05	131.35
608.25	134.94
608.46	138.24
608.66	139.71
608.86	144.03
609.06	139.78
609.26	144.21
609.47	142.48
609.67	145.20
609.87	145.05
610.07	148.78
610.28	148.44
610.48	147.49
610.68	150.97
610.88	146.93
611.08	145.54
611.29	144.16
611.49	139.19
611.69	138.44
611.89	137.10
612.09	137.77
612.29	134.66
612.50	132.41
612.70	133.73
612.90	130.25
613.10	130.03
613.30	129.88
613.51	133.08
613.71	134.46
613.91	130.14
614.11	129.06
614.31	129.30
614.51	129.34
614.72	131.29
614.92	130.06
615.12	128.43
615.32	130.88
615.52	131.00
615.72	128.50
615.93	128.09
616.13	133.45
616.33	132.58
616.53	133.49
616.73	133.12
616.93	129.39
617.14	128.05
617.34	129.45
617.54	127.57
617.74	125.19
617.94	126.55
618.14	125.71
618.34	122.04
618.55	121.48
618.75	121.03
618.95	119.04
619.15	120.77
619.35	121.93
619.55	122.25
619.75	126.15
619.96	128.72
620.16	129.04
620.36	130.81
620.56	132.56
620.76	132.89
620.96	132.58
621.16	133.40
621.36	133.60
621.57	134.92
621.77	134.51
621.97	132.52
622.17	130.18
622.37	130.88
622.57	131.65
622.77	132.48
622.97	131.67
623.18	131.33
623.38	134.05
623.58	133.68
623.78	132.71
623.98	132.43
624.18	131.70
624.38	132.45
624.58	132.99
624.78	136.06
624.98	136.53
625.19	139.04
625.39	139.49
625.59	137.10
625.79	139.49
625.99	138.24
626.19	139.06
626.39	137.06
626.59	135.52
626.79	136.77
626.99	133.51
627.19	133.53
627.40	134.37
627.60	133.62
627.80	135.00
628.00	133.01
628.20	134.18
628.40	136.38
628.60	136.12
628.80	138.33
629.00	134.27
629.20	132.50
629.40	132.17
629.60	127.98
629.80	127.72
630.00	128.78
630.20	128.59
630.41	129.04
630.61	126.23
630.81	128.07
631.01	132.48
631.21	136.53
631.41	137.27
631.61	139.06
631.81	140.10
632.01	142.71
632.21	141.70
632.41	139.50
632.61	136.49
632.81	134.98
633.01	138.35
633.21	132.73
633.41	131.61
633.61	130.29
633.81	126.40
634.01	127.22
634.21	127.10
634.41	125.58
634.61	126.97
634.81	126.42
635.01	127.37
635.22	123.73
635.42	127.35
635.62	126.88
635.82	130.46
636.02	134.68
636.22	136.97
636.42	137.81
636.62	136.88
636.82	138.41
637.02	138.67
637.22	137.96
637.42	138.87
637.62	135.91
637.82	131.24
638.02	130.75
638.22	127.22
638.42	123.96
638.62	119.62
638.82	122.23
639.02	122.51
639.22	124.14
639.42	124.37
639.62	125.13
639.82	124.67
640.02	128.13
640.22	124.26
640.42	123.83
640.62	125.26
640.82	127.46
641.02	126.60
641.22	129.56
641.42	129.38
641.61	132.69
641.81	135.18
642.01	134.92
642.21	135.95
642.41	137.38
642.61	137.92
642.81	137.06
643.01	137.98
643.21	136.75
643.41	133.83
643.61	136.02
643.81	134.55
644.01	131.24
644.21	131.85
644.41	130.88
644.61	131.76
644.81	133.60
645.01	132.37
645.21	129.88
645.41	130.85
645.61	131.78
645.81	131.50
646.01	126.64
646.21	126.08
646.40	128.07
646.60	129.10
646.80	128.74
647.00	129.43
647.20	127.27
647.40	129.43
647.60	128.04
647.80	122.95
648.00	121.82
648.20	125.88
648.40	127.50
648.60	125.22
648.80	123.21
649.00	125.86
649.20	125.32
649.39	127.94
649.59	125.89
649.79	127.29
649.99	132.13
650.19	131.81
650.39	133.49
650.59	131.54
650.79	128.43
650.99	129.34
651.19	125.26
651.39	127.01
651.58	130.03
651.78	128.84
651.98	127.22
652.18	123.96
652.38	124.93
652.58	124.14
652.78	124.24
652.98	127.22
653.18	128.11
653.38	126.62
653.57	123.88
653.77	122.43
653.97	122.25
654.17	121.50
654.37	124.68
654.57	121.00
654.77	119.36
654.97	119.90
655.16	120.05
655.36	120.01
655.56	122.30
655.76	121.44
655.96	123.14
656.16	124.74
656.36	125.60
656.56	122.23
656.75	124.65
656.95	126.21
657.15	128.26
657.35	127.76
657.55	126.71
657.75	125.34
657.95	124.72
658.14	122.41
658.34	125.13
658.54	127.46
658.74	128.20
658.94	127.77
659.14	126.17
659.34	126.62
659.53	126.38
659.73	126.47
659.93	128.39
660.13	131.65
660.33	132.17
660.53	131.68
660.72	127.51
660.92	127.74
661.12	125.67
661.32	126.77
661.52	125.73
661.72	125.86
661.91	125.30
662.11	124.22
662.31	120.40
662.51	121.54
662.71	119.69
662.90	122.38
663.10	122.73
663.30	121.24
663.50	119.32
663.70	115.17
663.90	116.51
664.09	118.11
664.29	120.48
664.49	124.98
664.69	123.44
664.89	120.92
665.08	120.79
665.28	120.33
665.48	123.47
665.68	125.56
665.88	128.31
666.07	124.33
666.27	120.94
666.47	118.45
666.67	114.09
666.87	112.79
667.06	117.63
667.26	118.17
667.46	115.38
667.66	116.29
667.85	114.09
668.05	114.59
668.25	117.09
668.45	118.15
668.65	119.71
668.84	122.41
669.04	121.65
669.24	121.18
669.44	118.61
669.63	122.62
669.83	121.72
670.03	120.14
670.23	117.03
670.42	115.82
670.62	114.44
670.82	115.19
671.02	112.02
671.22	114.33
671.41	112.23
671.61	112.43
671.81	110.39
672.01	111.11
672.20	111.02
672.40	113.03
672.60	112.77
672.80	115.52
672.99	117.03
673.19	116.12
673.39	115.65
673.58	115.71
673.78	113.85
673.98	115.34
674.18	117.11
674.37	121.43
674.57	120.66
674.77	123.66
674.97	120.66
675.16	117.81
675.36	118.35
675.56	116.45
675.75	114.69
675.95	116.23
676.15	116.45
676.35	115.52
676.54	111.00
676.74	109.98
676.94	105.66
677.13	107.57
677.33	107.18
677.53	107.91
677.73	108.80
677.92	110.05
678.12	111.32
678.32	112.49
678.51	110.18
678.71	112.66
678.91	115.45
679.11	117.76
679.30	118.58
679.50	121.24
679.70	120.72
679.89	119.01
680.09	118.58
680.29	118.04
680.48	116.06
680.68	115.13
680.88	113.81
681.07	114.31
681.27	116.29
681.47	116.06
681.66	112.95
681.86	113.68
682.06	116.42
682.25	119.45
682.45	118.60
682.65	118.89
682.84	119.25
683.04	120.85
683.24	118.69
683.43	116.53
683.63	115.99
683.83	116.25
684.02	116.83
684.22	114.44
684.42	109.86
684.61	112.10
684.81	110.96
685.01	109.34
685.20	108.15
685.40	108.39
685.60	107.26
685.79	106.44
685.99	107.11
686.19	108.02
686.38	109.38
686.58	109.92
686.77	108.58
686.97	107.74
687.17	107.18
687.36	104.24
687.56	102.40
687.76	100.85
687.95	98.81
688.15	99.12
688.34	96.91
688.54	97.58
688.74	96.29
688.93	95.73
689.13	95.21
689.33	95.84
689.52	99.66
689.72	100.96
689.91	102.04
690.11	100.46
690.31	99.01
690.50	100.42
690.70	100.63
690.89	100.95
691.09	98.64
691.29	100.76
691.48	103.46
691.68	104.65
691.87	106.96
692.07	108.37
692.27	111.37
692.46	110.65
692.66	110.66
692.85	109.96
693.05	112.17
693.25	114.35
693.44	112.32
693.64	112.99
693.83	108.34
694.03	104.17
694.22	105.25
694.42	107.65
694.62	107.93
694.81	106.70
695.01	107.29
695.20	106.70
695.40	108.15
695.59	109.47
695.79	107.15
695.99	108.56
696.18	107.97
696.38	106.07
696.57	106.33
696.77	105.25
696.96	103.27
697.16	101.97
697.36	100.15
697.55	98.45
697.75	96.78
697.94	94.77
698.14	96.14
698.33	96.40
698.53	95.75
698.72	93.80
698.92	97.28
699.11	98.56
699.31	99.25
699.51	100.98
699.70	101.62
699.90	101.90
700.09	102.98
700.29	98.92
700.48	97.50
700.68	99.21
700.87	98.77
701.07	96.48
701.26	96.96
701.46	95.53
701.65	94.78
701.85	94.39
702.04	94.39
702.24	97.74
702.43	99.66
702.63	102.55
702.82	100.50
703.02	98.28
703.21	97.39
703.41	95.55
703.60	93.72
703.80	93.03
703.99	94.45
704.19	92.81
704.38	89.22
704.58	88.84
704.77	84.53
704.97	83.09
705.16	86.70
705.36	85.92
705.55	87.02
705.75	90.43
705.94	90.86
706.14	90.00
706.33	90.65
706.53	89.78
706.72	89.25
706.92	90.30
707.11	91.77
707.31	87.63
707.50	89.42
707.70	85.72
707.89	83.07
708.09	86.72
708.28	86.31
708.48	85.10
708.67	86.98
708.86	88.77
709.06	92.27
709.25	92.51
709.45	92.87
709.64	89.27
709.84	90.26
710.03	88.64
710.23	82.51
710.42	81.62
710.62	80.49
710.81	79.22
711.00	79.05
711.20	78.81
711.39	79.33
711.59	79.72
711.78	80.41
711.98	83.93
712.17	87.65
712.37	88.84
712.56	88.94
712.75	92.81
712.95	91.34
713.14	90.97
713.34	87.97
713.53	85.68
713.73	87.36
713.92	89.07
714.11	87.54
714.31	85.25
714.50	84.86
714.70	82.79
714.89	80.99
715.08	81.77
715.28	80.52
715.47	83.05
715.67	84.79
715.86	81.04
716.06	78.31
716.25	75.29
716.44	74.32
716.64	72.46
716.83	74.01
717.03	76.18
717.22	77.54
717.41	80.99
717.61	78.57
717.80	75.72
717.99	79.46
718.19	79.50
718.38	83.39
718.58	82.68
718.77	86.01
718.96	83.67
719.16	82.85
719.35	80.88
719.55	76.35
719.74	76.74
719.93	80.13
720.13	77.95
720.32	76.41
720.51	72.67
720.71	74.79
720.90	76.17
721.10	79.54
721.29	76.58
721.48	77.69
721.68	77.54
721.87	78.23
722.06	77.08
722.26	76.45
722.45	79.00
722.64	80.54
722.84	79.16
723.03	75.16
723.22	73.60
723.42	73.75
723.61	71.79
723.80	74.04
724.00	72.50
724.19	72.35
724.38	75.48
724.58	77.28
724.77	76.69
724.96	75.27
725.16	74.68
725.35	75.33
725.54	74.04
725.74	72.89
725.93	72.85
726.12	73.08
726.32	71.98
726.51	73.82
726.70	72.78
726.90	73.76
727.09	78.21
727.28	78.72
727.48	79.44
727.67	79.98
727.86	84.95
728.06	83.87
728.25	84.54
728.44	86.55
728.64	80.56
728.83	80.47
729.02	79.65
729.21	76.43
729.41	79.37
729.60	77.32
729.79	81.83
729.99	78.90
730.18	77.02
730.37	78.81
730.56	78.33
730.76	78.12
730.95	77.47
731.14	75.55
731.34	71.25
731.53	71.08
731.72	72.22
731.91	71.68
732.11	70.51
732.30	72.55
732.49	69.26
732.69	70.06
732.88	70.17
733.07	69.67
733.26	71.05
733.46	71.49
733.65	70.52
733.84	67.53
734.03	62.54
734.23	64.62
734.42	61.22
734.61	61.51
734.80	60.34
735.00	60.51
735.19	60.45
735.38	61.16
735.57	64.14
735.77	63.64
735.96	63.75
736.15	64.60
736.34	60.94
736.54	64.31
736.73	63.84
736.92	61.79
737.11	63.71
737.31	63.69
737.50	51.89
737.69	54.08
737.88	51.65
738.07	50.40
738.27	50.55
738.46	51.55
738.65	50.98
738.84	50.34
739.04	48.24
739.23	46.56
739.42	43.99
739.61	57.55
739.80	55.50
740.00	55.97
740.19	56.45
740.38	58.24
740.57	59.60
740.76	59.65
740.96	60.36
741.15	62.37
741.34	62.50
741.53	64.79
741.72	63.78
741.92	62.35
742.11	61.33
742.30	61.44
742.49	60.49
742.68	58.09
742.88	56.78
743.07	55.02
743.26	58.14
743.45	59.26
743.64	60.92
743.84	60.36
744.03	61.09
744.22	62.43
744.41	61.92
744.60	59.11
744.79	59.48
744.99	59.06
745.18	58.55
745.37	56.26
745.56	55.16
745.75	52.71
745.94	52.37
746.14	53.36
746.33	53.04
746.52	53.94
746.71	56.08
746.90	55.98
747.09	58.05
747.28	60.92
747.48	63.60
747.67	65.35
747.86	65.35
748.05	65.20
748.24	63.32
748.43	63.93
748.62	64.14
748.82	61.25
749.01	61.70
749.20	57.90
749.39	57.70
749.58	54.05
749.77	49.73
749.96	49.60
750.16	48.93
750.35	50.49
750.54	50.83
750.73	50.66
750.92	55.41
751.11	56.24
751.30	56.95
751.49	55.50
751.68	54.07
751.88	53.88
752.07	54.35
752.26	53.47
752.45	50.96
752.64	49.06
752.83	51.11
753.02	47.33
753.21	45.35
753.40	47.23
753.60	46.38
753.79	47.18
753.98	44.89
754.17	44.31
754.36	45.13
754.55	46.30
754.74	47.27
754.93	46.32
755.12	48.43
755.31	48.00
755.50	44.01
755.70	45.82
755.89	46.62
756.08	48.56
756.27	46.92
756.46	47.42
756.65	48.56
756.84	47.10
757.03	45.80
757.22	45.20
757.41	45.82
757.60	48.67
757.79	47.61
757.98	46.45
758.17	46.82
758.36	47.89
758.56	44.78
758.75	43.44
758.94	44.74
759.13	45.17
759.32	42.95
759.51	43.25
759.70	40.62
759.89	40.94
760.08	42.06
760.27	41.63
760.46	38.89
760.65	39.28
760.84	39.77
761.03	37.70
761.22	40.38
761.41	40.48
761.60	42.62
761.79	44.91
761.98	46.28
762.17	44.53
762.36	46.06
762.55	47.74
762.74	47.59
762.93	48.26
763.12	49.00
763.31	46.17
763.50	49.97
763.69	50.49
763.88	47.38
764.07	47.51
764.26	46.51
764.45	44.76
764.64	44.96
764.83	44.65
765.02	42.62
765.21	43.10
765.40	40.31
765.59	38.17
765.78	36.83
765.97	37.83
766.16	33.20
766.35	33.88
766.54	35.26
766.73	34.61
766.92	36.60
767.11	38.87
767.30	39.02
767.49	37.46
767.68	37.59
767.87	36.21
768.06	37.98
768.25	42.17
768.44	38.46
768.63	37.11
768.82	38.69
769.01	39.66
769.20	38.07
769.39	35.56
769.58	38.50
769.77	37.57
769.96	37.79
770.15	36.92
770.34	34.26
770.53	36.60
770.72	39.30
770.91	39.49
771.10	37.61
771.29	37.31
771.47	38.93
771.66	40.16
771.85	39.73
772.04	38.78
772.23	39.95
772.42	40.23
772.61	43.06
772.80	42.56
772.99	40.08
773.18	37.98
773.37	37.53
773.56	37.33
773.75	36.62
773.94	36.27
774.13	35.91
774.31	36.86
774.50	36.90
774.69	34.65
774.88	33.49
775.07	36.98
775.26	38.82
775.45	41.78
775.64	42.80
775.83	44.61
776.02	46.14
776.21	47.66
776.40	45.60
776.58	46.32
776.77	47.83
776.96	47.61
777.15	48.67
777.34	46.86
777.53	43.01
777.72	42.28
777.91	40.48
778.10	38.69
778.28	34.28
778.47	33.47
778.66	29.40
778.85	30.59
779.04	26.31
779.23	22.45
779.42	21.22
779.61	21.13
779.79	21.41
779.98	21.52
780.17	19.87
780.36	20.85
780.55	21.73
780.74	23.94
780.93	22.19
781.12	27.63
781.30	26.72
781.49	30.79
781.68	31.71
781.87	31.11
782.06	29.96
782.25	34.50
782.44	36.81
782.62	37.24
782.81	38.19
783.00	38.11
783.19	36.70
783.38	40.62
783.57	38.05
783.75	35.75
783.94	35.11
784.13	35.17
784.32	30.94
784.51	33.16
784.70	29.83
784.88	29.16
785.07	29.17
785.26	30.98
785.45	26.47
785.64	30.12
785.83	29.53
786.01	30.12
786.20	33.14
786.39	35.88
786.58	36.01
786.77	38.95
786.95	37.98
787.14	40.03
787.33	37.85
787.52	37.48
787.71	34.39
787.90	35.23
788.08	36.40
788.27	33.40
788.46	32.23
788.65	29.88
788.84	28.49
789.02	29.83
789.21	27.28
789.40	26.92
789.59	29.23
789.77	27.41
789.96	28.52
790.15	25.49
790.34	25.38
790.53	26.60
790.71	27.46
790.90	27.96
791.09	28.19
791.28	27.09
791.46	25.93
791.65	26.14
791.84	27.78
792.03	27.96
792.22	29.86
792.40	30.66
792.59	30.83
792.78	28.63
792.97	29.08
793.15	27.61
793.34	26.70
793.53	28.13
793.72	26.44
793.90	27.87
794.09	28.89
794.28	28.49
794.47	25.88
794.65	23.27
794.84	23.70
795.03	24.37
795.22	25.92
795.40	27.89
795.59	27.39
795.78	29.25
795.97	28.78
796.15	27.70
796.34	24.05
796.53	23.64
796.71	21.21
796.90	22.77
797.09	21.13
797.28	21.00
797.46	24.97
797.65	23.24
797.84	22.84
798.02	21.69
798.21	22.04
798.40	23.48
798.59	24.04
798.77	30.05
798.96	27.76
799.15	28.58
799.33	27.70
799.52	23.51
799.71	23.79
799.90	21.13
800.08	19.46
800.27	19.88
800.46	21.71
800.64	23.38
800.83	19.23
801.02	21.89
801.20	20.48
801.39	22.43
801.58	24.00
801.76	26.42
801.95	26.98
802.14	25.80
802.32	24.87
802.51	27.65
802.70	27.44
802.88	29.96
803.07	27.39
803.26	29.10
803.44	25.62
803.63	24.89
803.82	26.33
804.00	27.28
804.19	30.59
804.38	30.42
804.56	25.39
804.75	25.04
804.94	21.67
805.12	24.26
805.31	24.17
805.50	28.15
805.68	26.14
805.87	25.43
806.06	25.25
806.24	26.59
806.43	25.45
806.62	28.28
806.80	28.73
806.99	30.18
807.17	28.62
807.36	24.54
807.55	22.16
807.73	26.12
807.92	25.32
808.11	27.29
808.29	25.12
808.48	24.46
808.66	25.99
808.85	23.53
809.04	24.65
809.22	25.41
809.41	29.42
809.59	30.24
809.78	26.57
809.97	25.47
810.15	24.04
810.34	24.63
810.53	25.32
810.71	23.40
810.90	25.41
811.08	25.51
811.27	22.30
811.45	23.01
811.64	22.68
811.83	22.56
812.01	21.08
812.20	21.89
812.38	22.49
812.57	22.47
812.76	22.04
812.94	23.03
813.13	21.65
813.31	24.20
813.50	24.39
813.68	23.83
813.87	24.67
814.06	27.41
814.24	26.75
814.43	25.64
814.61	27.72
814.80	29.21
814.98	27.33
815.17	27.91
815.36	27.00
815.54	24.39
815.73	22.86
815.91	22.43
816.10	20.68
816.28	18.93
816.47	17.71
816.65	16.91
816.84	14.69
817.03	13.46
817.21	14.26
817.40	14.21
817.58	10.89
817.77	8.94
817.95	8.42
818.14	10.52
818.32	10.31
818.51	9.51
818.69	7.09
818.88	8.58
819.06	9.81
819.25	5.70
819.43	6.33
819.62	10.84
819.80	11.04
819.99	9.42
820.18	8.28
820.36	10.56
820.55	13.61
820.73	14.37
820.92	10.72
821.10	9.64
821.29	9.87
821.47	7.86
821.66	7.11
821.84	11.38
822.03	12.90
822.21	14.04
822.40	12.92
822.58	11.02
822.77	15.25
822.95	16.66
823.14	18.97
823.32	22.29
823.50	22.77
823.69	23.72
823.87	23.03
824.06	21.30
824.24	18.51
824.43	16.77
824.61	20.85
824.80	16.48
824.98	14.69
825.17	14.56
825.35	14.47
825.54	11.32
825.72	13.48
825.91	12.47
826.09	14.24
826.28	16.07
826.46	17.30
826.64	14.88
826.83	16.14
827.01	19.14
827.20	14.65
827.38	14.75
827.57	15.81
827.75	11.51
827.94	12.68
828.12	11.54
828.31	8.77
828.49	7.80
828.67	5.73
828.86	7.80
829.04	6.55
829.23	10.52
829.41	10.28
829.60	14.32
829.78	18.43
829.96	17.39
830.15	18.84
830.33	21.47
830.52	24.39
830.70	22.86
830.88	21.54
831.07	22.66
831.25	20.16
831.44	20.05
831.62	18.95
831.81	15.06
831.99	15.60
832.17	16.55
832.36	13.93
832.54	13.26
832.73	13.74
832.91	14.60
833.09	14.99
833.28	15.19
833.46	15.38
833.65	19.21
833.83	19.12
834.01	18.92
834.20	18.62
834.38	23.44
834.56	22.56
834.75	23.70
834.93	21.62
835.12	18.73
835.30	17.80
835.48	15.83
835.67	12.60
835.85	10.41
836.03	7.97
836.22	5.75
836.40	1.62
836.59	1.04
836.77	3.70
836.95	3.70
837.14	3.95
837.32	7.88
837.50	8.86
837.69	7.73
837.87	9.83
838.05	12.31
838.24	10.93
838.42	9.35
838.60	9.23
838.79	6.44
838.97	8.01
839.15	8.97
839.34	5.70
839.52	8.12
839.70	7.78
839.89	8.47
840.07	8.19
840.25	9.03
840.44	11.88
840.62	13.50
840.80	13.26
840.99	10.41
841.17	10.31
841.35	13.44
841.54	12.23
841.72	9.74
841.90	10.07
842.09	8.60
842.27	10.24
842.45	11.11
842.64	11.65
842.82	9.20
843.00	12.46
843.19	12.60
843.37	11.73
843.55	10.41
843.73	10.71
843.92	8.21
844.10	7.76
844.28	4.15
844.47	2.76
844.65	0.41
844.83	4.32
845.01	2.16
845.20	2.01
845.38	3.78
845.56	1.92
845.75	2.98
845.93	5.46
846.11	5.46
846.29	6.40
846.48	6.89
846.66	5.46
846.84	4.69
847.02	4.69
847.21	5.16
847.39	3.78
847.57	6.57
847.76	7.19
847.94	3.93
848.12	4.58
848.30	7.86
848.49	7.84
848.67	12.14
848.85	10.78
849.03	11.47
849.22	11.32
849.40	8.94
849.58	7.93
849.76	9.16
849.95	11.25
850.13	10.18
850.31	12.25
850.49	13.33
850.67	9.57
850.86	12.25
851.04	11.67
851.22	13.52
851.40	17.78
851.59	19.33
851.77	17.22
851.95	18.32
852.13	18.60
852.31	15.40
852.50	15.34
852.68	14.15
852.86	11.51
853.04	8.55
853.23	6.07
853.41	3.82
853.59	4.82
853.77	6.94
853.95	5.08
854.14	6.42
854.32	6.85
854.50	6.59
854.68	9.25
854.86	9.90
855.04	12.10
855.23	14.60
855.41	16.22
855.59	11.90
855.77	11.95
855.95	13.61
856.14	14.75
856.32	14.35
856.50	13.67
856.68	14.09
856.86	16.07
857.04	15.64
857.23	12.53
857.41	11.23
857.59	11.11
857.77	11.15
857.95	7.99
858.13	8.17
858.32	9.10
858.50	8.30
858.68	7.28
858.86	4.82
859.04	3.30
859.22	3.65
859.41	2.89
859.59	4.77
859.77	2.25
859.95	7.93
860.13	9.07
860.31	9.20
860.49	8.79
860.68	9.12
860.86	9.40
861.04	11.38
861.22	11.30
861.40	11.00
861.58	10.71
861.76	12.01
861.94	8.28
862.13	4.30
862.31	2.14
862.49	3.87
862.67	2.49
862.85	1.99
863.03	0.13
863.21	-3.84
863.39	-4.24
863.57	-5.64
863.76	-5.32
863.94	-4.65
864.12	-2.46
864.30	1.04
864.48	-0.19
864.66	1.68
864.84	0.28
865.02	1.75
865.20	5.96
865.38	6.89
865.57	8.51
865.75	8.42
865.93	6.72
866.11	4.64
866.29	2.87
866.47	2.94
866.65	2.55
866.83	6.27
867.01	6.37
867.19	3.41
867.37	2.35
867.55	0.02
867.73	-1.28
867.92	1.21
868.10	4.84
868.28	5.34
868.46	3.89
868.64	0.84
868.82	-2.16
869.00	-1.55
869.18	3.09
869.36	2.27
869.54	4.39
869.72	8.84
869.90	4.43
870.08	1.88
870.26	0.82
870.44	-0.80
870.62	2.57
870.80	6.01
870.98	5.38
871.16	4.49
871.34	4.65
871.53	3.22
871.71	-2.16
871.89	2.63
872.07	1.94
872.25	3.02
872.43	3.93
872.61	0.22
872.79	-1.23
872.97	-0.50
873.15	-1.88
873.33	-1.30
873.51	0.19
873.69	6.01
873.87	6.87
874.05	10.74
874.23	9.25
874.41	11.10
874.59	14.99
874.77	11.93
874.95	8.68
875.13	11.32
875.31	9.01
875.49	8.40
875.67	2.79
875.85	-1.51
876.03	-2.98
876.21	-2.36
876.39	-2.64
876.57	-0.69
876.75	2.03
876.93	5.14
877.11	4.45
877.29	8.25
877.47	11.39
877.65	13.87
877.82	17.07
878.00	13.24
878.18	13.67
878.36	15.69
878.54	11.32
878.72	11.97
878.90	12.16
879.08	11.26
879.26	8.99
879.44	2.85
879.62	4.39
879.80	2.25
879.98	5.36
880.16	8.30
880.34	6.13
880.52	5.98
880.70	3.15
880.88	1.10
881.06	3.00
881.24	3.74
881.42	8.23
881.59	5.68
881.77	6.07
881.95	5.66
882.13	-0.02
882.31	3.78
882.49	0.37
882.67	3.82
882.85	3.20
883.03	3.20
883.21	2.59
883.39	1.92
883.57	2.40
883.75	3.41
883.92	4.15
884.10	6.18
884.28	4.88
884.46	7.04
884.64	6.44
884.82	12.44
885.00	10.20
885.18	9.98
885.36	7.97
885.54	7.88
885.71	8.04
885.89	6.03
886.07	5.53
886.25	8.10
886.43	9.22
886.61	8.53
886.79	5.94
886.97	6.52
887.15	6.27
887.32	9.42
887.50	7.39
887.68	8.73
887.86	10.41
888.04	9.77
888.22	4.95
888.40	3.78
888.57	4.82
888.75	1.90
888.93	3.11
889.11	3.11
889.29	0.99
889.47	3.18
889.65	-0.73
889.82	-0.60
890.00	0.95
890.18	-0.50
890.36	2.01
890.54	1.04
890.72	1.32
890.90	0.80
891.07	0.99
891.25	0.63
891.43	-0.82
891.61	2.61
891.79	2.85
891.97	-0.71
892.14	1.71
892.32	-0.17
892.50	0.26
892.68	2.72
892.86	-0.67
893.03	0.34
893.21	2.57
893.39	0.71
893.57	1.28
893.75	0.06
893.93	1.58
894.10	3.43
894.28	6.57
894.46	7.15
894.64	2.33
894.82	5.86
894.99	5.40
895.17	4.36
895.35	6.18
895.53	6.61
895.71	2.96
895.88	4.45
896.06	1.92
896.24	2.09
896.42	1.34
896.59	5.34
896.77	5.79
896.95	7.02
897.13	4.67
897.31	6.50
897.48	5.86
897.66	9.74
897.84	8.02
898.02	8.81
898.19	4.08
898.37	0.97
898.55	0.52
898.73	1.19
898.91	-2.98
899.08	-1.82
899.26	-1.73
899.44	-3.56
899.62	-4.99
899.79	-4.32
899.97	-5.96
900.15	-3.52
900.33	-1.94
900.50	-2.81
900.68	-4.58
900.86	0.06
901.04	2.25
901.21	3.97
901.39	3.74
901.57	4.82
901.74	4.99
901.92	5.34
902.10	7.61
902.28	6.81
902.45	7.11
902.63	6.53
902.81	6.70
902.99	6.42
903.16	3.13
903.34	3.43
903.52	2.46
903.69	3.02
903.87	4.39
904.05	2.55
904.22	4.65
904.40	5.92
904.58	6.16
904.76	4.13
904.93	2.36
905.11	2.25
905.29	5.57
905.46	8.23
905.64	9.03
905.82	8.75
905.99	7.19
906.17	8.02
906.35	10.78
906.53	9.57
906.70	8.23
906.88	8.17
907.06	10.50
907.23	5.99
907.41	3.61
907.59	4.36
907.76	4.02
907.94	7.65
908.12	7.67
908.29	4.77
908.47	5.05
908.65	5.53
908.82	7.75
909.00	4.75
909.18	6.72
909.35	7.02
909.53	5.66
909.71	2.66
909.88	0.50
910.06	2.76
910.23	4.36
910.41	7.60
910.59	8.82
910.76	9.59
910.94	14.09
911.12	13.74
911.29	13.83
911.47	11.15
911.65	11.43
911.82	7.73
912.00	4.02
912.17	3.72
912.35	2.23
912.53	1.84
912.70	-1.32
912.88	-4.86
913.06	-3.56
913.23	-7.41
913.41	-4.80
913.58	0.26
913.76	4.02
913.94	5.66
914.11	5.70
914.29	3.87
914.46	5.16
914.64	9.10
914.82	11.79
914.99	12.59
915.17	19.31
915.34	19.33
915.52	16.53
915.70	17.15
915.87	17.07
916.05	14.34
916.22	15.38
916.40	15.15
916.57	9.07
916.75	7.11
916.93	4.78
917.10	0.80
917.28	0.69
917.45	2.83
917.63	0.67
917.80	-2.46
917.98	0.32
918.16	1.17
918.33	-2.18
918.51	-0.80
918.68	0.04
918.86	-0.19
919.03	0.35
919.21	1.23
919.39	1.64
919.56	1.47
919.74	0.22
919.91	-2.77
920.09	-5.01
920.26	-3.84
920.44	-3.52
920.61	-7.88
920.79	-7.34
920.96	-4.36
921.14	-6.33
921.31	-10.61
921.49	-8.94
921.67	-4.95
921.84	-3.39
922.02	-1.32
922.19	-1.34
922.37	-0.02
922.54	1.68
922.72	-1.43
922.89	-0.13
923.07	0.50
923.24	2.77
923.42	0.80
923.59	1.34
923.77	4.23
923.94	1.12
924.12	0.47
924.29	-0.63
924.47	-0.48
924.64	3.48
924.82	2.74
924.99	6.03
925.17	5.81
925.34	8.92
925.52	7.17
925.69	4.39
925.87	8.30
926.04	10.11
926.22	13.48
926.39	14.22
926.57	15.55
926.74	12.44
926.91	9.35
927.09	10.54
927.26	9.27
927.44	8.56
927.61	9.98
927.79	8.81
927.96	10.72
928.14	9.59
928.31	15.81
928.49	12.10
928.66	15.73
928.84	17.39
929.01	14.22
929.18	13.13
929.36	14.34
929.53	12.60
929.71	13.00
929.88	12.88
930.06	11.90
930.23	6.50
930.41	6.48
930.58	4.88
930.75	5.03
930.93	7.02
931.10	7.02
931.28	4.21
931.45	4.82
931.63	2.85
931.80	0.97
931.97	-0.63
932.15	-0.65
932.32	-0.74
932.50	-3.17
932.67	-2.89
932.84	-5.27
933.02	-2.23
933.19	-0.09
933.37	-0.63
933.54	-0.26
933.71	3.26
933.89	5.27
934.06	3.18
934.24	4.56
934.41	4.71
934.58	1.06
934.76	1.43
934.93	0.82
935.11	0.80
935.28	2.53
935.45	1.82
935.63	-0.06
935.80	-1.49
935.98	2.22
936.15	1.73
936.32	2.76
936.50	5.81
936.67	4.56
936.84	3.59
937.02	2.35
937.19	-0.19
937.36	0.99
937.54	-4.10
937.71	-4.02
937.89	-6.46
938.06	-7.67
938.23	-9.18
938.41	-9.59
938.58	-6.81
938.75	-6.11
938.93	-3.63
939.10	-4.15
939.27	-2.03
939.45	3.20
939.62	2.68
939.79	2.85
939.97	3.67
940.14	3.57
940.31	3.03
940.49	3.05
940.66	2.61
940.83	1.38
941.01	3.76
941.18	2.64
941.35	0.65
941.53	3.52
941.70	5.92
941.87	7.11
942.05	8.90
942.22	9.16
942.39	8.23
942.57	8.43
942.74	9.27
942.91	7.71
943.08	6.20
943.26	8.45
943.43	7.65
943.60	6.68
943.78	7.35
943.95	6.83
944.12	5.85
944.29	6.48
944.47	5.38
944.64	4.60
944.81	3.17
944.99	4.06
945.16	-0.47
945.33	-3.00
945.50	-0.88
945.68	-1.41
945.85	-4.82
946.02	-6.70
946.20	-7.15
946.37	-7.45
946.54	-7.19
946.71	-2.89
946.89	-1.49
947.06	0.24
947.23	1.36
947.40	-0.47
947.58	-0.63
947.75	2.89
947.92	3.89
948.09	4.45
948.27	2.96
948.44	3.20
948.61	-2.22
948.78	-3.57
948.96	-1.32
949.13	-0.45
949.30	-0.41
949.47	-0.91
949.65	-3.22
949.82	-2.36
949.99	-0.35
950.16	1.68
950.33	-1.66
950.51	0.35
950.68	0.02
950.85	-1.34
951.02	-1.62
951.20	-3.26
951.37	-3.00
951.54	-1.68
951.71	-0.35
951.88	-2.70
952.06	-2.68
952.23	0.20
952.40	0.43
952.57	0.45
952.74	1.23
952.92	0.24
953.09	2.51
953.26	-1.04
953.43	-1.41
953.60	-3.98
953.77	-0.48
953.95	-0.04
954.12	-2.36
954.29	-2.14
954.46	-2.79
954.63	-3.54
954.81	-2.35
954.98	-2.66
955.15	1.40
955.32	2.72
955.49	3.41
955.66	-1.64
955.84	-1.21
956.01	1.99
956.18	2.72
956.35	2.10
956.52	1.81
956.69	1.28
956.87	1.12
957.04	0.09
957.21	1.38
957.38	2.18
957.55	3.84
957.72	3.69
957.89	1.68
958.07	2.38
958.24	2.57
958.41	2.98
958.58	3.13
958.75	2.81
958.92	2.85
959.09	-0.73
959.26	-0.30
959.44	-0.58
959.61	-0.65
959.78	2.72
959.95	1.04
960.12	0.02
960.29	1.60
960.46	1.17
960.63	-1.99
960.81	-4.39
960.98	-1.75
961.15	-2.05
961.32	-3.52
961.49	-3.61
961.66	-2.18
961.83	-0.67
962.00	0.02
962.17	-3.50
962.34	-1.60
962.52	-0.34
962.69	-0.30
962.86	-2.79
963.03	-4.82
963.20	-2.66
963.37	-3.44
963.54	-7.60
963.71	-5.77
963.88	-6.50
964.05	-4.80
964.22	-7.48
964.39	-5.40
964.56	-4.64
964.74	-3.61
964.91	-2.14
965.08	-3.03
965.25	-2.16
965.42	-2.12
965.59	-5.46
965.76	-5.47
965.93	-5.51
966.10	-1.60
966.27	-3.56
966.44	-3.35
966.61	0.48
966.78	-0.63
966.95	2.03
967.12	0.07
967.29	-0.78
967.46	0.76
967.63	2.20
967.80	1.17
967.97	-1.69
968.14	-1.66
968.32	-2.29
968.49	-4.58
968.66	-1.38
968.83	-2.22
969.00	-0.45
969.17	2.16
969.34	1.92
969.51	0.45
969.68	6.05
969.85	6.83
970.02	6.09
970.19	7.39
970.36	6.67
970.53	6.53
970.70	3.57
970.87	3.31
971.04	2.96
971.21	1.19
971.38	1.66
971.55	-4.00
971.72	-5.21
971.89	-2.61
972.06	-2.12
972.23	-2.53
972.40	-3.70
972.57	-3.03
972.74	-3.09
972.91	-1.19
973.07	-1.43
973.24	-0.20
973.41	2.63
973.58	3.00
973.75	1.12
973.92	0.35
974.09	0.63
974.26	2.36
974.43	5.98
974.60	5.23
974.77	2.40
974.94	4.92
975.11	5.21
975.28	4.99
975.45	3.39
975.62	3.69
975.79	3.89
975.96	4.56
976.13	2.12
976.30	-1.08
976.47	-2.44
976.64	-4.21
976.80	-8.23
976.97	-10.82
977.14	-12.98
977.31	-12.27
977.48	-13.31
977.65	-13.74
977.82	-16.38
977.99	-15.69
978.16	-15.12
978.33	-14.35
978.50	-14.73
978.67	-11.95
978.83	-10.05
979.00	-10.33
979.17	-9.63
979.34	-5.86
979.51	-2.42
979.68	-0.45
979.85	3.03
980.02	3.22
980.19	5.55
980.36	8.64
980.52	6.14
980.69	4.21
980.86	2.40
981.03	4.02
981.20	2.49
981.37	0.45
981.54	-0.60
981.71	-6.16
981.88	-7.60
982.04	-9.29
982.21	-10.35
982.38	-6.37
982.55	-4.17
982.72	1.41
982.89	-3.03
983.06	-5.64
983.22	-6.14
983.39	-5.01
983.56	-2.16
983.73	0.76
983.90	1.56
984.07	2.49
984.24	0.95
984.40	-0.45
984.57	-2.09
984.74	-0.15
984.91	0.89
985.08	2.57
985.25	2.46
985.41	2.12
985.58	1.40
985.75	2.85
985.92	3.50
986.09	1.06
986.26	2.85
986.42	3.65
986.59	5.38
986.76	6.87
986.93	5.36
987.10	5.55
987.27	6.01
987.43	5.99
987.60	4.99
987.77	4.58
987.94	8.21
988.11	7.71
988.27	2.87
988.44	4.54
988.61	5.42
988.78	5.36
988.95	6.40
989.11	4.73
989.28	2.76
989.45	1.55
989.62	2.87
989.79	3.31
989.95	4.08
990.12	5.44
990.29	4.62
990.46	3.76
990.62	4.49
990.79	6.63
990.96	6.31
991.13	7.48
991.30	10.31
991.46	5.73
991.63	4.00
991.80	5.51
991.97	5.66
992.13	4.17
992.30	4.32
992.47	5.29
992.64	1.02
992.80	1.88
992.97	2.35
993.14	1.25
993.31	3.26
993.47	2.46
993.64	0.50
993.81	2.81
993.98	2.14
994.14	0.30
994.31	-2.29
994.48	-0.61
994.64	-1.30
994.81	-1.68
994.98	-2.12
995.15	-0.35
995.31	3.61
995.48	2.77
995.65	3.39
995.82	8.30
995.98	9.35
996.15	9.07
996.32	10.85
996.48	13.93
996.65	15.75
996.82	14.80
996.99	13.94
997.15	12.23
997.32	14.99
997.49	14.50
997.65	10.17
997.82	8.82
997.99	10.63
998.15	5.08
998.32	3.98
998.49	1.19
998.65	3.48
998.82	1.27
998.99	1.23
999.15	-0.65
999.32	-2.83
999.49	-2.66
999.65	-0.86
999.82	-3.17
999.99	-1.77
1000.15	-2.94
1000.32	0.35
1000.49	-2.64
1000.65	-1.51
1000.82	-2.57
1000.99	-0.76
1001.15	1.51
1001.32	1.60
1001.49	1.51
1001.65	1.28
1001.82	4.52
1001.99	5.83
1002.15	7.63
1002.32	8.06
1002.49	7.99
1002.65	7.54
1002.82	6.76
1002.99	4.15
1003.15	5.66
1003.32	5.42
1003.48	7.52
1003.65	6.26
1003.82	4.15
1003.98	1.56
1004.15	-0.63
1004.32	-0.22
1004.48	1.32
1004.65	0.06
1004.81	3.11
1004.98	-0.32
1005.15	1.40
1005.31	0.00
1005.48	0.52
1005.64	1.19
1005.81	-1.01
1005.98	1.58
1006.14	0.84
1006.31	-0.43
1006.47	-1.92
1006.64	-2.33
1006.81	-2.51
1006.97	-3.80
1007.14	-1.34
1007.30	-0.50
1007.47	-0.34
1007.63	-0.17
1007.80	-1.92
1007.97	0.97
1008.13	1.99
1008.30	1.81
1008.46	0.22
1008.63	2.70
1008.79	3.46
1008.96	2.81
1009.13	-1.90
1009.29	-2.40
1009.46	-4.06
1009.62	-2.90
1009.79	-4.52
1009.95	-4.86
1010.12	-1.88
1010.28	-2.79
1010.45	-5.51
1010.62	-7.21
1010.78	-6.11
1010.95	-2.59
1011.11	-0.84
1011.28	3.44
1011.44	2.14
1011.61	1.14
1011.77	-1.62
1011.94	-3.61
1012.10	0.99
1012.27	5.01
1012.43	4.13
1012.60	2.23
1012.76	-0.13
1012.93	-0.60
1013.10	-2.94
1013.26	-0.63
1013.43	2.89
1013.59	6.29
1013.76	7.43
1013.92	6.01
1014.09	5.68
1014.25	4.04
1014.42	3.26
1014.58	4.32
1014.75	1.73
1014.91	-0.69
1015.08	-0.95
1015.24	-1.01
1015.41	-3.28
1015.57	-2.46
1015.73	-4.04
1015.90	-4.92
1016.06	-1.88
1016.23	-0.04
1016.39	0.63
1016.56	3.39
1016.72	3.31
1016.89	1.68
1017.05	-0.74
1017.22	0.20
1017.38	1.01
1017.55	-0.28
1017.71	-0.86
1017.88	-2.94
1018.04	-2.29
1018.21	-1.97
1018.37	-3.84
1018.53	-2.87
1018.70	1.55
1018.86	0.32
1019.03	-0.09
1019.19	-3.02
1019.36	0.00
1019.52	-1.14
1019.69	-0.20
1019.85	-0.69
1020.01	-2.29
1020.18	-1.51
1020.34	1.36
1020.51	-4.10
1020.67	-4.56
1020.84	-2.12
1021.00	0.82
1021.16	0.07
1021.33	2.44
1021.49	3.43
1021.66	5.38
1021.82	5.59
1021.98	4.93
1022.15	6.48
1022.31	8.97
1022.48	7.82
1022.64	7.41
1022.80	7.22
1022.97	3.57
1023.13	5.68
1023.30	6.13
1023.46	4.92
1023.62	7.09
1023.79	8.66
1023.95	8.64
1024.12	9.74
1024.28	12.36
1024.44	12.18
1024.61	10.87
1024.77	13.65
1024.93	11.56
1025.10	9.85
1025.26	11.58
1025.43	10.93
1025.59	9.90
1025.75	8.86
1025.92	8.66
1026.08	9.79
1026.24	8.68
1026.41	8.62
1026.57	10.24
1026.73	8.01
1026.90	7.88
1027.06	5.06
1027.23	2.07
1027.39	2.46
1027.55	-0.34
1027.72	0.47
1027.88	1.49
1028.04	-0.82
1028.21	-1.41
1028.37	-3.33
1028.53	-2.57
1028.70	-2.31
1028.86	-5.62
1029.02	-3.44
1029.19	-2.72
1029.35	0.43
1029.51	-0.47
1029.67	-2.31
1029.84	-0.30
1030.00	1.79
1030.16	3.97
1030.33	5.81
1030.49	9.66
1030.65	12.36
1030.82	12.85
1030.98	9.55
1031.14	8.06
1031.31	7.78
1031.47	7.82
1031.63	6.35
1031.79	3.84
1031.96	2.70
1032.12	-0.11
1032.28	-3.11
1032.45	-2.33
1032.61	-1.62
1032.77	0.41
1032.93	0.28
1033.10	1.15
1033.26	-1.08
1033.42	2.12
1033.58	5.57
1033.75	3.37
1033.91	3.67
1034.07	2.38
1034.24	0.73
1034.40	-1.60
1034.56	-0.60
1034.72	-0.58
1034.89	-1.47
1035.05	1.04
1035.21	-0.48
1035.37	-0.65
1035.54	-0.41
1035.70	1.45
1035.86	2.64
1036.02	4.65
1036.19	5.57
1036.35	4.11
1036.51	3.44
1036.67	3.65
1036.83	4.86
1037.00	5.38
1037.16	2.72
1037.32	5.27
1037.48	7.32
1037.65	7.80
1037.81	4.43
1037.97	7.39
1038.13	6.87
1038.29	7.61
1038.46	5.70
1038.62	5.14
1038.78	5.27
1038.94	6.50
1039.10	5.92
1039.27	2.36
1039.43	2.74
1039.59	3.07
1039.75	-0.45
1039.91	-0.80
1040.08	-1.01
1040.24	1.01
1040.40	0.80
1040.56	0.04
1040.72	0.02
1040.89	1.49
1041.05	1.28
1041.21	1.77
1041.37	3.33
1041.53	4.52
1041.69	6.11
1041.86	4.47
1042.02	1.73
1042.18	-2.07
1042.34	-2.27
1042.50	-2.01
1042.66	-5.85
1042.83	-4.00
1042.99	-5.60
1043.15	-5.81
1043.31	-3.67
1043.47	-3.56
1043.63	-2.81
1043.79	-1.19
1043.96	-0.74
1044.12	0.67
1044.28	0.15
1044.44	1.40
1044.60	0.35
1044.76	-0.15
1044.92	-0.47
1045.09	-3.33
1045.25	-2.96
1045.41	-1.12
1045.57	0.32
1045.73	0.97
1045.89	0.61
1046.05	0.74
1046.21	14.75
1046.38	10.44
1046.54	-13.31
1046.70	10.65
1046.86	10.24
>>>>>End Processed Spectral Data<<<<<
