SpectraSuite Data File
++++++++++++++++++++++++++++++++++++
Date: Mon May 06 13:48:20 CDT 2013
User: Students
Dark Spectrum Present: Yes
Reference Spectrum Present: Yes
Number of Sampled Component Spectra: 1
Spectrometers: USB4H00887
Integration Time (usec): 100000 (USB4H00887)
Spectra Averaged: 10 (USB4H00887)
Boxcar Smoothing: 5 (USB4H00887)
Correct for Electrical Dark: No (USB4H00887)
Strobe/Lamp Enabled: No (USB4H00887)
Correct for Detector Non-linearity: No (USB4H00887)
Correct for Stray Light: No (USB4H00887)
Number of Pixels in Processed Spectrum: 3648
>>>>>Begin Processed Spectral Data<<<<<
345.83	3.07
346.05	3.07
346.26	3.07
346.48	-20.89
346.70	6.76
346.92	-0.74
347.14	-2.29
347.35	-4.21
347.57	-6.13
347.79	-4.95
348.01	-5.72
348.23	-4.06
348.44	-5.34
348.66	-8.73
348.88	-6.35
349.10	-5.85
349.32	-3.28
349.53	-1.28
349.75	0.07
349.97	3.69
350.19	6.98
350.41	7.13
350.62	6.11
350.84	6.29
351.06	6.61
351.28	7.88
351.50	11.38
351.71	11.34
351.93	11.62
352.15	11.21
352.37	9.59
352.58	6.85
352.80	8.47
353.02	9.18
353.24	10.46
353.46	10.11
353.67	9.70
353.89	7.39
354.11	5.77
354.33	6.26
354.54	6.52
354.76	7.65
354.98	9.92
355.20	8.17
355.41	6.48
355.63	6.27
355.85	9.35
356.07	6.24
356.28	4.45
356.50	6.74
356.72	5.92
356.94	6.53
357.15	4.58
357.37	3.41
357.59	6.81
357.81	4.67
358.02	3.87
358.24	3.80
358.46	4.80
358.68	6.89
358.89	5.83
359.11	3.76
359.33	6.42
359.55	5.34
359.76	6.03
359.98	2.55
360.20	6.98
360.42	7.61
360.63	3.11
360.85	1.47
361.07	-0.61
361.29	0.32
361.50	2.92
361.72	-0.47
361.94	-0.13
362.15	-2.46
362.37	-0.17
362.59	-0.32
362.81	-0.09
363.02	3.93
363.24	6.96
363.46	4.90
363.68	1.68
363.89	2.27
364.11	3.35
364.33	6.39
364.54	8.79
364.76	7.78
364.98	8.77
365.20	6.24
365.41	4.90
365.63	4.82
365.85	5.72
366.06	8.77
366.28	6.72
366.50	6.96
366.71	5.68
366.93	3.61
367.15	4.43
367.37	4.65
367.58	7.99
367.80	7.60
368.02	6.89
368.23	8.38
368.45	6.05
368.67	7.60
368.88	7.37
369.10	7.15
369.32	5.88
369.53	6.05
369.75	7.32
369.97	2.20
370.19	3.28
370.40	3.50
370.62	4.36
370.84	6.55
371.05	4.67
371.27	3.52
371.49	3.65
371.70	3.82
371.92	2.98
372.14	-0.35
372.35	3.61
372.57	6.27
372.79	5.99
373.00	7.65
373.22	8.01
373.44	7.75
373.65	8.36
373.87	5.96
374.09	5.75
374.30	4.47
374.52	3.43
374.74	3.93
374.95	-0.52
375.17	1.17
375.39	0.88
375.60	-0.41
375.82	0.78
376.04	2.70
376.25	4.80
376.47	5.49
376.68	5.06
376.90	5.42
377.12	5.29
377.33	7.06
377.55	7.06
377.77	5.70
377.98	3.61
378.20	5.96
378.42	5.47
378.63	4.93
378.85	8.58
379.07	10.57
379.28	10.39
379.50	8.68
379.71	10.69
379.93	8.38
380.15	8.49
380.36	8.82
380.58	6.05
380.80	4.80
381.01	5.96
381.23	3.87
381.44	4.24
381.66	7.24
381.88	7.75
382.09	3.80
382.31	4.88
382.53	3.02
382.74	4.26
382.96	4.26
383.17	2.48
383.39	0.65
383.61	2.12
383.82	-1.60
384.04	-4.52
384.25	-4.11
384.47	-4.19
384.69	-7.65
384.90	-4.21
385.12	-3.50
385.33	-3.30
385.55	0.78
385.77	1.49
385.98	-0.95
386.20	0.30
386.41	0.30
386.63	1.86
386.85	4.28
387.06	5.32
387.28	2.68
387.49	0.60
387.71	-0.76
387.93	-6.96
388.14	-4.39
388.36	-4.67
388.57	-4.67
388.79	-4.32
389.01	-5.18
389.22	-6.61
389.44	-5.03
389.65	-4.97
389.87	-1.56
390.08	1.23
390.30	5.72
390.52	2.46
390.73	5.31
390.95	7.97
391.16	5.47
391.38	3.82
391.59	5.31
391.81	5.08
392.03	3.46
392.24	0.58
392.46	-0.93
392.67	0.43
392.89	0.45
393.10	-0.54
393.32	-3.50
393.53	-1.75
393.75	-0.93
393.97	-1.14
394.18	-3.41
394.40	-0.65
394.61	0.52
394.83	2.55
395.04	0.99
395.26	2.70
395.47	0.82
395.69	3.09
395.91	3.20
396.12	4.93
396.34	5.68
396.55	6.26
396.77	4.84
396.98	4.52
397.20	1.17
397.41	2.59
397.63	2.63
397.84	1.21
398.06	-0.91
398.27	-0.56
398.49	-0.93
398.71	-3.13
398.92	0.91
399.14	2.79
399.35	2.14
399.57	3.56
399.78	2.92
400.00	3.87
400.21	5.06
400.43	5.42
400.64	5.60
400.86	5.08
401.07	7.32
401.29	6.87
401.50	5.79
401.72	5.60
401.93	5.18
402.15	3.89
402.36	0.56
402.58	1.19
402.79	1.01
403.01	-0.84
403.22	-1.40
403.44	-2.51
403.65	-2.10
403.87	1.23
404.08	3.91
404.30	3.07
404.51	3.26
404.73	2.94
404.94	1.23
405.16	-0.13
405.37	1.17
405.59	3.09
405.80	2.10
406.02	-0.22
406.23	-3.03
406.45	-6.24
406.66	-5.72
406.88	-8.62
407.09	-7.24
407.31	-3.56
407.52	-2.66
407.74	-1.19
407.95	-3.05
408.17	-1.41
408.38	-0.19
408.60	0.47
408.81	3.85
409.03	4.64
409.24	5.79
409.45	8.08
409.67	8.64
409.88	11.15
410.10	9.55
410.31	9.44
410.53	5.53
410.74	2.09
410.96	-2.57
411.17	-5.14
411.39	-6.85
411.60	-5.29
411.82	-7.95
412.03	-11.47
412.24	-12.49
412.46	-12.33
412.67	-13.59
412.89	-10.52
413.10	-8.68
413.32	-6.61
413.53	-8.58
413.75	-9.20
413.96	-10.11
414.17	-9.16
414.39	-7.22
414.60	-6.42
414.82	-7.11
415.03	-4.97
415.25	-3.37
415.46	-0.11
415.68	1.53
415.89	8.04
416.10	8.45
416.32	12.73
416.53	12.86
416.75	10.74
416.96	8.60
417.18	9.81
417.39	8.71
417.60	6.31
417.82	2.76
418.03	2.03
418.25	1.01
418.46	5.14
418.67	1.30
418.89	2.53
419.10	4.67
419.32	8.25
419.53	7.07
419.75	6.22
419.96	5.75
420.17	4.78
420.39	5.60
420.60	2.31
420.82	0.02
421.03	0.39
421.24	-2.92
421.46	-4.73
421.67	-6.37
421.89	-2.25
422.10	-2.46
422.31	-1.99
422.53	-0.50
422.74	1.10
422.96	0.99
423.17	1.77
423.38	0.91
423.60	1.34
423.81	4.17
424.03	5.59
424.24	1.81
424.45	2.55
424.67	3.69
424.88	3.97
425.09	3.76
425.31	2.35
425.52	1.49
425.74	0.34
425.95	2.76
426.16	1.08
426.38	-1.97
426.59	0.69
426.80	0.80
427.02	0.69
427.23	2.81
427.45	1.79
427.66	4.24
427.87	2.09
428.09	6.40
428.30	7.24
428.51	8.45
428.73	8.84
428.94	6.87
429.15	5.90
429.37	6.98
429.58	7.56
429.79	7.47
430.01	5.21
430.22	8.04
430.44	7.17
430.65	5.70
430.86	5.57
431.08	5.08
431.29	6.63
431.50	7.22
431.72	6.03
431.93	5.75
432.14	5.62
432.36	7.88
432.57	9.53
432.78	9.07
433.00	7.06
433.21	7.76
433.42	10.57
433.64	8.42
433.85	9.77
434.06	11.02
434.28	9.63
434.49	9.72
434.70	7.61
434.92	5.72
435.13	4.64
435.34	7.67
435.56	6.37
435.77	5.27
435.98	5.68
436.20	5.85
436.41	3.93
436.62	2.31
436.83	-1.01
437.05	1.51
437.26	1.45
437.47	0.52
437.69	-2.20
437.90	-3.74
438.11	-0.34
438.33	-0.15
438.54	0.65
438.75	0.93
438.97	1.71
439.18	4.93
439.39	5.59
439.60	6.48
439.82	10.56
440.03	11.47
440.24	13.61
440.46	11.15
440.67	11.97
440.88	9.61
441.10	10.98
441.31	10.80
441.52	12.21
441.73	10.63
441.95	11.26
442.16	7.95
442.37	6.48
442.58	6.61
442.80	3.74
443.01	3.95
443.22	4.15
443.44	3.20
443.65	2.09
443.86	2.68
444.07	3.44
444.29	2.66
444.50	2.33
444.71	3.82
444.92	1.84
445.14	2.03
445.35	0.65
445.56	1.01
445.78	-0.24
445.99	1.21
446.20	-0.78
446.41	-1.94
446.63	-1.77
446.84	0.06
447.05	2.63
447.26	4.95
447.48	6.81
447.69	8.51
447.90	7.86
448.11	9.05
448.33	8.97
448.54	9.83
448.75	9.70
448.96	7.52
449.18	7.91
449.39	7.32
449.60	8.32
449.81	8.14
450.03	8.15
450.24	7.95
450.45	7.45
450.66	8.23
450.87	8.17
451.09	8.38
451.30	9.66
451.51	7.48
451.72	6.61
451.94	3.22
452.15	4.32
452.36	4.65
452.57	1.95
452.78	2.49
453.00	3.57
453.21	2.18
453.42	5.86
453.63	5.53
453.85	9.40
454.06	12.08
454.27	12.05
454.48	11.00
454.69	9.77
454.91	14.88
455.12	17.00
455.33	15.51
455.54	17.04
455.75	14.32
455.97	14.08
456.18	11.25
456.39	8.71
456.60	9.18
456.81	9.23
457.03	14.91
457.24	16.83
457.45	16.31
457.66	16.96
457.87	19.83
458.09	20.93
458.30	20.09
458.51	20.61
458.72	21.88
458.93	23.12
459.15	25.95
459.36	25.23
459.57	23.94
459.78	23.10
459.99	24.20
460.20	22.06
460.42	22.90
460.63	27.72
460.84	28.32
461.05	29.36
461.26	31.04
461.47	30.96
461.69	29.86
461.90	29.73
462.11	33.33
462.32	32.38
462.53	34.52
462.74	37.09
462.96	37.27
463.17	40.21
463.38	38.59
463.59	37.57
463.80	38.65
464.01	39.13
464.23	41.63
464.44	40.72
464.65	42.69
464.86	43.12
465.07	41.46
465.28	41.63
465.49	44.72
465.71	47.79
465.92	51.05
466.13	50.66
466.34	50.14
466.55	50.16
466.76	50.88
466.97	51.57
467.19	52.52
467.40	56.17
467.61	57.40
467.82	55.30
468.03	59.22
468.24	59.50
468.45	65.24
468.66	68.05
468.88	71.49
469.09	73.08
469.30	78.59
469.51	80.99
469.72	80.02
469.93	82.31
470.14	84.73
470.35	80.04
470.57	81.19
470.78	77.04
470.99	77.49
471.20	78.94
471.41	78.55
471.62	80.04
471.83	83.26
472.04	83.15
472.25	83.72
472.47	87.32
472.68	95.12
472.89	98.81
473.10	103.68
473.31	109.32
473.52	110.18
473.73	116.38
473.94	119.62
474.15	119.04
474.36	124.40
474.57	128.24
474.79	130.96
475.00	133.27
475.21	135.37
475.42	136.13
475.63	135.33
475.84	138.37
476.05	142.71
476.26	141.25
476.47	145.35
476.68	146.67
476.89	152.44
477.10	156.35
477.32	159.50
477.53	164.06
477.74	168.51
477.95	173.87
478.16	176.63
478.37	177.48
478.58	181.82
478.79	184.54
479.00	187.76
479.21	187.63
479.42	185.88
479.63	186.72
479.84	189.36
480.05	192.60
480.26	196.57
480.47	199.58
480.69	200.92
480.90	203.55
481.11	205.82
481.32	212.04
481.53	216.47
481.74	220.55
481.95	224.12
482.16	225.30
482.37	227.90
482.58	229.74
482.79	232.84
483.00	239.50
483.21	242.22
483.42	249.41
483.63	251.49
483.84	252.74
484.05	256.89
484.26	259.66
484.47	267.54
484.68	270.72
484.89	273.72
485.10	276.29
485.31	279.29
485.52	281.86
485.73	281.41
485.94	284.18
486.15	287.93
486.37	291.69
486.58	294.83
486.79	294.57
487.00	300.19
487.21	303.96
487.42	312.00
487.63	313.84
487.84	319.74
488.05	323.49
488.26	327.56
488.47	331.96
488.68	334.04
488.89	338.23
489.10	342.12
489.31	344.99
489.52	345.98
489.73	348.77
489.94	350.76
490.15	355.14
490.36	357.93
490.57	358.30
490.78	358.30
490.99	359.36
491.20	358.99
491.41	358.08
491.62	357.71
491.83	360.91
492.04	359.68
492.25	363.03
492.45	361.58
492.66	367.35
492.87	371.17
493.08	376.86
493.29	384.05
493.50	389.39
493.71	397.31
493.92	400.96
494.13	404.12
494.34	406.22
494.55	405.07
494.76	407.69
494.97	406.43
495.18	409.43
495.39	409.39
495.60	409.61
495.81	411.85
496.02	410.34
496.23	410.21
496.44	414.90
496.65	416.72
496.86	424.69
497.07	428.77
497.28	430.26
497.49	430.19
497.70	434.97
497.91	434.95
498.12	436.44
498.32	440.82
498.53	446.42
498.74	443.46
498.95	447.48
499.16	446.25
499.37	446.77
499.58	451.58
499.79	452.56
500.00	452.45
500.21	455.75
500.42	456.72
500.63	458.30
500.84	455.36
501.05	460.59
501.26	460.90
501.46	466.08
501.67	467.20
501.88	466.42
502.09	470.51
502.30	473.12
502.51	476.43
502.72	478.95
502.93	478.76
503.14	482.78
503.35	483.47
503.56	487.16
503.77	485.31
503.97	488.46
504.18	490.84
504.39	493.06
504.60	494.94
504.81	497.14
505.02	501.14
505.23	503.30
505.44	510.54
505.65	512.05
505.86	513.07
506.07	515.19
506.27	518.58
506.48	521.95
506.69	527.05
506.90	531.06
507.11	533.40
507.32	535.73
507.53	540.37
507.74	540.35
507.95	545.34
508.15	549.81
508.36	551.85
508.57	559.86
508.78	562.02
508.99	562.86
509.20	562.11
509.41	563.90
509.62	565.31
509.82	565.78
510.03	566.21
510.24	567.05
510.45	569.63
510.66	576.21
510.87	574.31
511.08	578.51
511.29	579.04
511.49	583.91
511.70	587.21
511.91	593.72
512.12	599.14
512.33	603.33
512.54	606.44
512.75	609.62
512.95	612.81
513.16	613.53
513.37	616.57
513.58	620.14
513.79	622.82
514.00	624.78
514.20	623.35
514.41	626.34
514.62	626.40
514.83	630.33
515.04	633.10
515.25	634.87
515.46	639.58
515.66	644.37
515.87	651.48
516.08	655.29
516.29	661.88
516.50	666.00
516.71	668.44
516.91	676.76
517.12	680.61
517.33	680.19
517.54	682.31
517.75	683.72
517.95	686.50
518.16	684.58
518.37	685.10
518.58	685.01
518.79	690.54
519.00	694.71
519.20	696.68
519.41	696.44
519.62	701.58
519.83	705.93
520.04	708.08
520.24	708.82
520.45	713.92
520.66	717.89
520.87	723.58
521.08	723.55
521.28	724.87
521.49	727.22
521.70	733.58
521.91	735.28
522.12	736.64
522.32	740.82
522.53	742.80
522.74	743.47
522.95	742.98
523.16	743.88
523.36	745.70
523.57	745.65
523.78	747.21
523.99	747.83
524.20	750.04
524.40	755.37
524.61	757.69
524.82	760.26
525.03	765.47
525.23	771.58
525.44	771.97
525.65	774.77
525.86	780.07
526.06	784.00
526.27	786.46
526.48	788.88
526.69	787.00
526.90	790.55
527.10	793.01
527.31	793.76
527.52	797.78
527.73	801.46
527.93	803.70
528.14	805.02
528.35	805.52
528.56	808.07
528.76	809.08
528.97	812.43
529.18	810.57
529.39	812.60
529.59	810.57
529.80	809.26
530.01	808.20
530.22	809.54
530.42	808.54
530.63	811.63
530.84	810.29
531.05	814.50
531.25	811.91
531.46	815.72
531.67	814.64
531.88	813.97
532.08	814.01
532.29	815.78
532.50	817.25
532.70	823.21
532.91	818.68
533.12	819.17
533.33	814.48
533.53	816.79
533.74	813.36
533.95	812.95
534.15	818.13
534.36	818.24
534.57	818.07
534.78	814.98
534.98	807.09
535.19	807.12
535.40	807.64
535.60	810.94
535.81	810.31
536.02	812.47
536.23	811.91
536.43	813.19
536.64	813.16
536.85	811.22
537.05	814.14
537.26	816.53
537.47	815.87
537.67	811.83
537.88	808.82
538.09	808.98
538.30	808.56
538.50	806.15
538.71	800.25
538.92	801.50
539.12	799.55
539.33	796.99
539.54	791.99
539.74	791.73
539.95	789.98
540.16	788.21
540.36	787.78
540.57	785.43
540.78	783.93
540.98	785.06
541.19	782.64
541.40	784.00
541.60	783.87
541.81	786.29
542.02	786.55
542.22	785.88
542.43	783.68
542.64	778.58
542.84	776.33
543.05	777.65
543.26	774.78
543.46	769.63
543.67	761.73
543.88	752.46
544.08	751.68
544.29	747.19
544.50	747.53
544.70	742.46
544.91	741.12
545.12	738.52
545.32	731.70
545.53	728.83
545.74	726.49
545.94	724.44
546.15	722.88
546.35	717.16
546.56	711.74
546.77	705.25
546.97	703.57
547.18	697.39
547.39	690.18
547.59	688.56
547.80	682.40
548.01	679.05
548.21	677.91
548.42	679.27
548.62	670.13
548.83	665.48
549.04	659.97
549.24	654.66
549.45	649.30
549.65	643.92
549.86	637.85
550.07	633.57
550.27	628.11
550.48	621.50
550.69	612.86
550.89	612.49
551.10	609.29
551.30	606.46
551.51	602.31
551.72	600.91
551.92	598.42
552.13	590.54
552.33	583.22
552.54	575.40
552.75	571.48
552.95	565.91
553.16	561.11
553.36	555.46
553.57	552.34
553.78	545.93
553.98	540.66
554.19	537.91
554.39	534.80
554.60	532.94
554.80	526.64
555.01	519.90
555.22	516.09
555.42	510.20
555.63	503.76
555.83	497.04
556.04	497.04
556.25	492.72
556.45	483.19
556.66	480.10
556.86	471.13
557.07	469.02
557.27	464.44
557.48	458.26
557.68	453.92
557.89	448.93
558.10	443.35
558.30	434.13
558.51	426.93
558.71	424.30
558.92	418.12
559.12	415.53
559.33	411.42
559.54	407.14
559.74	403.58
559.95	397.60
560.15	396.17
560.36	393.97
560.56	392.76
560.77	389.99
560.97	385.06
561.18	380.87
561.38	377.31
561.59	374.28
561.79	370.01
562.00	365.58
562.21	364.33
562.41	361.28
562.62	356.10
562.82	352.57
563.03	345.77
563.23	342.89
563.44	338.45
563.64	334.28
563.85	331.49
564.05	325.38
564.26	318.31
564.46	313.45
564.67	310.88
564.87	301.50
565.08	296.99
565.28	294.24
565.49	289.10
565.69	288.21
565.90	285.75
566.10	278.82
566.31	279.66
566.51	281.93
566.72	278.21
566.92	274.41
567.13	275.82
567.33	270.96
567.54	269.31
567.74	268.23
567.95	262.53
568.15	261.82
568.36	263.74
568.56	258.77
568.77	251.73
568.97	248.03
569.18	244.62
569.38	243.60
569.59	237.58
569.79	233.93
570.00	230.97
570.20	227.92
570.41	220.29
570.61	216.28
570.82	214.05
571.02	209.45
571.23	204.29
571.43	198.75
571.64	196.74
571.84	198.47
572.05	196.42
572.25	193.89
572.45	192.92
572.66	193.25
572.86	191.06
573.07	187.43
573.27	188.93
573.48	189.88
573.68	188.69
573.89	185.64
574.09	182.85
574.30	180.85
574.50	179.23
574.70	177.19
574.91	176.67
575.11	172.70
575.32	172.01
575.52	170.17
575.73	167.32
575.93	165.14
576.14	162.29
576.34	163.50
576.54	160.60
576.75	159.69
576.95	160.43
577.16	158.74
577.36	160.21
577.57	162.66
577.77	163.00
577.97	165.81
578.18	163.82
578.38	164.36
578.59	159.31
578.79	160.36
579.00	159.37
579.20	155.44
579.40	154.70
579.61	151.79
579.81	148.98
580.02	144.62
580.22	144.55
580.42	147.96
580.63	145.37
580.83	144.33
581.04	142.78
581.24	141.68
581.45	143.80
581.65	141.63
581.85	137.77
582.06	135.39
582.26	136.00
582.47	131.76
582.67	126.62
582.87	126.77
583.08	128.28
583.28	129.58
583.48	126.97
583.69	124.55
583.89	124.42
584.10	126.96
584.30	123.01
584.50	123.72
584.71	121.82
584.91	122.25
585.12	125.54
585.32	124.29
585.52	122.77
585.73	127.12
585.93	127.74
586.13	129.95
586.34	127.98
586.54	128.98
586.75	127.27
586.95	127.89
587.15	127.98
587.36	123.57
587.56	123.55
587.76	122.39
587.97	118.50
588.17	115.00
588.37	111.76
588.58	115.56
588.78	116.88
588.98	116.83
589.19	117.89
589.39	117.76
589.60	115.10
589.80	117.09
590.00	116.79
590.21	115.86
590.41	116.42
590.61	115.30
590.82	109.19
591.02	108.37
591.22	110.24
591.43	110.12
591.63	107.39
591.83	109.01
592.04	106.61
592.24	106.55
592.44	105.66
592.65	105.30
592.85	107.11
593.05	109.55
593.26	105.73
593.46	104.63
593.66	101.11
593.86	102.32
594.07	103.93
594.27	103.18
594.47	104.61
594.68	106.74
594.88	105.12
595.08	102.83
595.29	101.11
595.49	104.32
595.69	99.72
595.90	102.57
596.10	102.25
596.30	101.13
596.50	101.88
596.71	100.72
596.91	99.40
597.11	102.58
597.32	103.81
597.52	103.18
597.72	106.27
597.93	107.50
598.13	109.21
598.33	110.63
598.53	108.37
598.74	108.97
598.94	109.60
599.14	108.37
599.35	106.35
599.55	105.71
599.75	108.97
599.95	106.85
600.16	109.27
600.36	105.94
600.56	105.90
600.76	107.24
600.97	108.24
601.17	106.12
601.37	105.99
601.58	107.37
601.78	102.99
601.98	102.98
602.18	104.47
602.39	104.26
602.59	103.40
602.79	101.84
602.99	100.41
603.20	97.41
603.40	97.63
603.60	98.28
603.80	99.23
604.01	106.12
604.21	101.77
604.41	100.09
604.61	98.30
604.82	100.74
605.02	100.76
605.22	100.78
605.42	98.60
605.62	97.02
605.83	94.97
606.03	94.65
606.23	90.39
606.43	93.24
606.64	90.37
606.84	95.70
607.04	94.15
607.24	95.53
607.45	97.67
607.65	102.08
607.85	102.92
608.05	107.78
608.25	108.13
608.46	111.20
608.66	112.28
608.86	116.85
609.06	112.60
609.26	112.73
609.47	111.13
609.67	114.20
609.87	109.25
610.07	108.30
610.28	106.70
610.48	104.95
610.68	107.07
610.88	106.59
611.08	106.31
611.29	104.50
611.49	104.33
611.69	102.64
611.89	97.71
612.09	101.86
612.29	104.93
612.50	104.78
612.70	105.84
612.90	102.38
613.10	99.64
613.30	99.70
613.51	101.24
613.71	101.69
613.91	103.12
614.11	103.66
614.31	102.42
614.51	102.90
614.72	102.06
614.92	102.10
615.12	103.61
615.32	104.47
615.52	103.05
615.72	104.84
615.93	103.53
616.13	106.25
616.33	106.81
616.53	105.64
616.73	102.68
616.93	101.26
617.14	102.18
617.34	101.86
617.54	106.20
617.74	105.64
617.94	103.48
618.14	105.17
618.34	100.37
618.55	100.56
618.75	101.26
618.95	100.93
619.15	98.69
619.35	100.82
619.55	99.46
619.75	98.71
619.96	97.91
620.16	99.33
620.36	97.06
620.56	101.00
620.76	99.14
620.96	98.82
621.16	99.57
621.36	102.01
621.57	99.05
621.77	101.73
621.97	96.87
622.17	95.90
622.37	96.22
622.57	100.56
622.77	99.27
622.97	97.86
623.18	96.09
623.38	95.70
623.58	98.58
623.78	98.49
623.98	96.70
624.18	99.55
624.38	103.46
624.58	103.59
624.78	105.79
624.98	108.39
625.19	109.53
625.39	110.83
625.59	111.09
625.79	109.98
625.99	110.81
626.19	108.24
626.39	104.37
626.59	100.07
626.79	99.40
626.99	93.70
627.19	91.80
627.40	95.03
627.60	96.91
627.80	95.71
628.00	93.80
628.20	92.62
628.40	96.79
628.60	99.25
628.80	101.24
629.00	102.27
629.20	103.20
629.40	103.03
629.60	100.80
629.80	98.36
630.00	101.11
630.20	102.71
630.41	105.00
630.61	100.65
630.81	102.58
631.01	106.72
631.21	106.22
631.41	105.99
631.61	108.51
631.81	108.62
632.01	111.95
632.21	110.85
632.41	108.34
632.61	106.51
632.81	105.60
633.01	105.28
633.21	99.53
633.41	99.10
633.61	100.80
633.81	97.41
634.01	97.43
634.21	95.25
634.41	96.50
634.61	98.21
634.81	99.55
635.01	103.65
635.22	102.49
635.42	103.57
635.62	103.12
635.82	102.62
636.02	105.38
636.22	107.76
636.42	111.37
636.62	109.44
636.82	110.78
637.02	107.31
637.22	107.31
637.42	108.60
637.62	109.81
637.82	106.53
638.02	106.10
638.22	104.63
638.42	102.47
638.62	100.33
638.82	102.53
639.02	102.16
639.22	104.73
639.42	101.90
639.62	100.83
639.82	99.62
640.02	103.70
640.22	105.06
640.42	102.29
640.62	102.38
640.82	101.88
641.02	100.35
641.22	101.02
641.42	99.42
641.61	104.11
641.81	107.20
642.01	108.78
642.21	107.09
642.41	103.63
642.61	105.23
642.81	107.65
643.01	107.67
643.21	109.10
643.41	111.58
643.61	114.54
643.81	111.19
644.01	107.00
644.21	108.75
644.41	109.21
644.61	111.45
644.81	113.72
645.01	111.91
645.21	109.66
645.41	106.29
645.61	106.35
645.81	104.54
646.01	103.27
646.21	106.90
646.40	107.37
646.60	106.89
646.80	107.31
647.00	107.15
647.20	103.78
647.40	108.80
647.60	110.83
647.80	105.54
648.00	106.18
648.20	110.40
648.40	108.52
648.60	105.32
648.80	105.95
649.00	105.41
649.20	104.47
649.39	107.26
649.59	103.68
649.79	104.35
649.99	105.53
650.19	107.52
650.39	106.44
650.59	105.17
650.79	105.38
650.99	105.00
651.19	105.47
651.39	110.61
651.58	112.34
651.78	112.17
651.98	109.92
652.18	107.80
652.38	106.35
652.58	105.53
652.78	105.66
652.98	104.95
653.18	106.66
653.38	104.09
653.57	98.82
653.77	97.82
653.97	98.34
654.17	97.65
654.37	100.57
654.57	97.69
654.77	95.92
654.97	96.65
655.16	99.44
655.36	100.37
655.56	102.06
655.76	101.71
655.96	101.39
656.16	100.15
656.36	101.37
656.56	99.25
656.75	101.90
656.95	101.95
657.15	102.73
657.35	98.06
657.55	97.02
657.75	94.73
657.95	96.98
658.14	95.45
658.34	95.58
658.54	94.84
658.74	93.52
658.94	92.88
659.14	93.33
659.34	96.76
659.53	97.95
659.73	97.78
659.93	101.02
660.13	102.44
660.33	105.51
660.53	109.32
660.72	107.83
660.92	111.65
661.12	110.27
661.32	110.81
661.52	106.51
661.72	107.65
661.91	109.44
662.11	108.78
662.31	103.61
662.51	104.20
662.71	101.84
662.90	105.73
663.10	106.14
663.30	104.56
663.50	104.26
663.70	102.38
663.90	102.94
664.09	100.48
664.29	100.59
664.49	105.23
664.69	102.88
664.89	99.21
665.08	97.37
665.28	94.34
665.48	97.30
665.68	95.58
665.88	96.72
666.07	95.79
666.27	94.13
666.47	91.84
666.67	88.64
666.87	89.96
667.06	93.89
667.26	95.75
667.46	95.49
667.66	95.73
667.85	95.47
668.05	95.34
668.25	97.02
668.45	97.20
668.65	100.33
668.84	101.99
669.04	98.79
669.24	101.75
669.44	101.00
669.63	105.51
669.83	104.99
670.03	106.05
670.23	106.16
670.42	105.58
670.62	104.15
670.82	105.45
671.02	103.50
671.22	105.41
671.41	100.09
671.61	100.76
671.81	97.15
672.01	97.52
672.20	97.15
672.40	97.86
672.60	98.92
672.80	104.24
672.99	104.39
673.19	105.23
673.39	106.77
673.58	111.06
673.78	108.60
673.98	109.86
674.18	110.44
674.37	112.82
674.57	112.58
674.77	110.91
674.97	104.73
675.16	100.44
675.36	98.81
675.56	95.96
675.75	90.50
675.95	91.84
676.15	92.16
676.35	92.51
676.54	91.06
676.74	90.73
676.94	88.03
677.13	93.54
677.33	96.11
677.53	97.19
677.73	97.45
677.92	101.45
678.12	102.79
678.32	102.81
678.51	101.21
678.71	103.33
678.91	104.00
679.11	109.55
679.30	110.09
679.50	112.01
679.70	112.14
679.89	109.60
680.09	109.68
680.29	109.29
680.48	110.39
680.68	110.52
680.88	107.83
681.07	106.48
681.27	103.74
681.47	101.84
681.66	98.64
681.86	99.10
682.06	103.31
682.25	103.59
682.45	100.52
682.65	100.03
682.84	98.73
683.04	98.56
683.24	97.74
683.43	98.00
683.63	95.32
683.83	94.24
684.02	92.61
684.22	90.48
684.42	87.17
684.61	87.39
684.81	85.88
685.01	84.25
685.20	84.90
685.40	85.72
685.60	85.31
685.79	88.30
685.99	91.34
686.19	93.18
686.38	97.22
686.58	99.98
686.77	103.33
686.97	104.74
687.17	104.35
687.36	102.53
687.56	100.57
687.76	98.06
687.95	97.04
688.15	96.18
688.34	94.80
688.54	91.75
688.74	88.32
688.93	86.98
689.13	85.49
689.33	85.68
689.52	86.96
689.72	90.39
689.91	90.95
690.11	89.55
690.31	92.38
690.50	94.15
690.70	94.43
690.89	96.37
691.09	93.31
691.29	93.09
691.48	96.89
691.68	96.89
691.87	96.22
692.07	94.34
692.27	96.14
692.46	91.51
692.66	88.70
692.85	87.11
693.05	86.98
693.25	91.25
693.44	91.66
693.64	89.94
693.83	88.23
694.03	86.87
694.22	88.83
694.42	88.55
694.62	86.65
694.81	88.36
695.01	90.67
695.20	90.17
695.40	88.86
695.59	88.42
695.79	88.66
695.99	87.97
696.18	87.73
696.38	89.12
696.57	92.20
696.77	94.11
696.96	89.46
697.16	88.96
697.36	87.73
697.55	84.60
697.75	86.16
697.94	83.52
698.14	84.60
698.33	83.58
698.53	82.85
698.72	79.54
698.92	81.29
699.11	86.55
699.31	86.59
699.51	87.36
699.70	89.16
699.90	86.01
700.09	86.50
700.29	85.61
700.48	85.70
700.68	86.83
700.87	87.71
701.07	84.71
701.26	82.09
701.46	81.99
701.65	80.50
701.85	79.59
702.04	80.76
702.24	82.76
702.43	84.10
702.63	86.35
702.82	85.87
703.02	82.98
703.21	83.78
703.41	81.55
703.60	79.89
703.80	83.02
703.99	82.66
704.19	81.03
704.38	79.72
704.58	80.21
704.77	78.96
704.97	78.74
705.16	82.78
705.36	81.62
705.55	85.29
705.75	83.97
705.94	82.25
706.14	86.46
706.33	87.00
706.53	87.97
706.72	87.19
706.92	87.39
707.11	88.30
707.31	83.39
707.50	84.64
707.70	81.99
707.89	82.07
708.09	85.51
708.28	83.99
708.48	84.86
708.67	83.84
708.86	86.13
709.06	87.11
709.25	84.19
709.45	85.12
709.64	83.18
709.84	81.86
710.03	83.18
710.23	78.60
710.42	76.72
710.62	73.56
710.81	74.79
711.00	74.56
711.20	72.72
711.39	74.06
711.59	75.14
711.78	75.83
711.98	80.56
712.17	82.66
712.37	82.40
712.56	82.27
712.75	83.46
712.95	81.60
713.14	79.93
713.34	79.87
713.53	78.34
713.73	76.69
713.92	78.70
714.11	75.83
714.31	73.39
714.50	75.23
714.70	75.03
714.89	79.14
715.08	78.03
715.28	78.12
715.47	78.60
715.67	80.95
715.86	81.17
716.06	80.80
716.25	76.87
716.44	74.27
716.64	74.25
716.83	76.45
717.03	72.93
717.22	74.84
717.41	75.27
717.61	72.11
717.80	70.60
717.99	71.36
718.19	69.63
718.38	74.75
718.58	77.51
718.77	76.11
718.96	71.31
719.16	72.54
719.35	74.19
719.55	72.70
719.74	76.50
719.93	73.19
720.13	70.13
720.32	70.21
720.51	69.76
720.71	67.75
720.90	68.01
721.10	68.57
721.29	67.10
721.48	63.88
721.68	66.17
721.87	66.88
722.06	71.05
722.26	74.19
722.45	76.71
722.64	73.71
722.84	73.97
723.03	74.01
723.22	77.04
723.42	74.86
723.61	74.86
723.80	72.94
724.00	71.34
724.19	71.12
724.38	71.62
724.58	71.51
724.77	73.28
724.96	75.66
725.16	76.04
725.35	75.29
725.54	77.02
725.74	76.63
725.93	75.05
726.12	73.00
726.32	72.54
726.51	73.58
726.70	71.73
726.90	71.42
727.09	71.18
727.28	69.76
727.48	67.47
727.67	68.48
727.86	71.25
728.06	71.34
728.25	72.63
728.44	74.01
728.64	68.77
728.83	68.12
729.02	69.17
729.21	65.98
729.41	67.94
729.60	68.48
729.79	70.30
729.99	69.52
730.18	70.58
730.37	74.30
730.56	74.17
730.76	73.99
730.95	73.95
731.14	71.98
731.34	71.98
731.53	70.43
731.72	70.71
731.91	69.26
732.11	68.76
732.30	68.96
732.49	65.87
732.69	65.78
732.88	69.84
733.07	69.89
733.26	70.90
733.46	67.73
733.65	68.59
733.84	69.02
734.03	67.30
734.23	64.75
734.42	60.86
734.61	59.99
734.80	59.39
735.00	57.40
735.19	55.28
735.38	55.35
735.57	58.83
735.77	58.50
735.96	57.96
736.15	54.59
736.34	56.19
736.54	59.28
736.73	59.04
736.92	55.11
737.11	57.88
737.31	60.55
737.50	59.32
737.69	59.76
737.88	60.79
738.07	59.74
738.27	63.24
738.46	63.95
738.65	63.88
738.84	63.54
739.04	66.02
739.23	62.05
739.42	60.14
739.61	62.54
739.80	62.67
740.00	60.36
740.19	58.53
740.38	58.89
740.57	58.26
740.76	58.46
740.96	57.53
741.15	56.34
741.34	55.69
741.53	54.94
741.72	53.10
741.92	50.72
742.11	51.91
742.30	54.62
742.49	53.25
742.68	49.08
742.88	49.90
743.07	51.16
743.26	53.38
743.45	54.07
743.64	57.01
743.84	57.36
744.03	60.95
744.22	57.57
744.41	57.96
744.60	53.41
744.79	57.31
744.99	56.52
745.18	56.13
745.37	53.32
745.56	53.94
745.75	50.53
745.94	49.77
746.14	49.34
746.33	50.47
746.52	51.66
746.71	56.11
746.90	54.44
747.09	53.81
747.28	55.61
747.48	57.83
747.67	58.26
747.86	59.04
748.05	58.05
748.24	54.79
748.43	55.54
748.62	53.60
748.82	53.58
749.01	54.61
749.20	51.78
749.39	48.18
749.58	48.26
749.77	46.97
749.96	47.31
750.16	50.88
750.35	51.57
750.54	49.71
750.73	50.29
750.92	51.72
751.11	51.20
751.30	53.43
751.49	53.02
751.68	49.26
751.88	50.77
752.07	52.48
752.26	49.10
752.45	48.93
752.64	50.88
752.83	51.33
753.02	49.24
753.21	47.51
753.40	47.64
753.60	49.39
753.79	50.88
753.98	48.69
754.17	48.46
754.36	49.15
754.55	50.16
754.74	48.16
754.93	47.20
755.12	47.70
755.31	46.66
755.50	45.33
755.70	45.84
755.89	46.30
756.08	43.12
756.27	39.84
756.46	41.03
756.65	41.16
756.84	42.08
757.03	40.10
757.22	40.94
757.41	44.09
757.60	46.88
757.79	45.37
757.98	45.87
758.17	50.92
758.36	52.32
758.56	51.29
758.75	49.90
758.94	50.01
759.13	50.53
759.32	48.93
759.51	47.27
759.70	42.93
759.89	44.61
760.08	45.43
760.27	44.55
760.46	44.78
760.65	44.05
760.84	44.46
761.03	42.69
761.22	45.09
761.41	43.85
761.60	46.14
761.79	45.80
761.98	43.94
762.17	45.99
762.36	44.94
762.55	43.16
762.74	41.95
762.93	45.30
763.12	45.39
763.31	44.48
763.50	47.33
763.69	46.43
763.88	47.31
764.07	49.13
764.26	43.25
764.45	43.83
764.64	46.41
764.83	46.25
765.02	42.11
765.21	43.64
765.40	43.60
765.59	40.18
765.78	39.49
765.97	39.79
766.16	34.13
766.35	32.13
766.54	32.10
766.73	29.21
766.92	30.65
767.11	33.12
767.30	33.83
767.49	29.99
767.68	31.87
767.87	32.41
768.06	32.41
768.25	35.60
768.44	39.64
768.63	39.10
768.82	43.27
769.01	44.85
769.20	45.99
769.39	42.69
769.58	43.90
769.77	44.48
769.96	45.93
770.15	48.74
770.34	48.59
770.53	48.16
770.72	47.12
770.91	43.49
771.10	41.05
771.29	36.71
771.47	36.86
771.66	38.74
771.85	38.58
772.04	35.62
772.23	34.65
772.42	34.16
772.61	35.71
772.80	35.45
772.99	34.41
773.18	32.66
773.37	35.19
773.56	36.30
773.75	35.63
773.94	34.15
774.13	32.28
774.31	32.90
774.50	32.77
774.69	27.57
774.88	26.49
775.07	29.55
775.26	33.33
775.45	33.57
775.64	35.80
775.83	35.52
776.02	37.55
776.21	41.54
776.40	39.75
776.58	40.07
776.77	43.42
776.96	46.51
777.15	46.10
777.34	42.08
777.53	40.49
777.72	39.64
777.91	38.33
778.10	34.26
778.28	31.17
778.47	30.33
778.66	29.97
778.85	32.28
779.04	30.07
779.23	26.68
779.42	28.13
779.61	27.41
779.79	29.34
779.98	31.46
780.17	33.55
780.36	34.03
780.55	35.54
780.74	35.45
780.93	32.21
781.12	33.68
781.30	35.67
781.49	35.67
781.68	34.74
781.87	34.70
782.06	34.15
782.25	37.87
782.44	39.86
782.62	40.33
782.81	40.55
783.00	39.95
783.19	39.54
783.38	41.52
783.57	41.13
783.75	40.29
783.94	39.49
784.13	40.51
784.32	36.49
784.51	35.19
784.70	32.21
784.88	35.73
785.07	36.01
785.26	35.91
785.45	33.64
785.64	34.74
785.83	35.91
786.01	33.36
786.20	32.88
786.39	33.92
786.58	34.52
786.77	35.26
786.95	30.51
787.14	31.95
787.33	34.52
787.52	34.76
787.71	34.50
787.90	34.78
788.08	35.37
788.27	33.51
788.46	33.23
788.65	32.60
788.84	32.88
789.02	34.03
789.21	34.74
789.40	33.40
789.59	33.12
789.77	34.15
789.96	32.56
790.15	32.64
790.34	34.01
790.53	35.13
790.71	35.26
790.90	34.11
791.09	36.14
791.28	34.46
791.46	33.66
791.65	32.21
791.84	29.90
792.03	28.97
792.22	29.29
792.40	29.49
792.59	28.22
792.78	27.59
792.97	31.48
793.15	29.43
793.34	28.71
793.53	27.85
793.72	30.20
793.90	30.63
794.09	35.86
794.28	36.40
794.47	32.97
794.65	31.76
794.84	32.88
795.03	30.61
795.22	32.36
795.40	35.21
795.59	35.49
795.78	35.08
795.97	37.87
796.15	35.58
796.34	33.03
796.53	35.71
796.71	35.71
796.90	34.82
797.09	34.31
797.28	30.57
797.46	31.82
797.65	32.06
797.84	33.01
798.02	31.84
798.21	33.34
798.40	34.65
798.59	34.48
798.77	36.42
798.96	38.07
799.15	37.76
799.33	38.91
799.52	36.94
799.71	33.14
799.90	29.45
800.08	28.69
800.27	27.89
800.46	27.82
800.64	29.47
800.83	27.67
801.02	27.82
801.20	31.04
801.39	32.71
801.58	32.90
801.76	35.15
801.95	38.63
802.14	37.14
802.32	36.77
802.51	37.81
802.70	33.81
802.88	34.67
803.07	31.69
803.26	30.22
803.44	29.32
803.63	27.03
803.82	25.56
804.00	24.95
804.19	25.13
804.38	26.33
804.56	25.79
804.75	28.75
804.94	27.16
805.12	28.32
805.31	29.30
805.50	31.46
805.68	30.12
805.87	35.62
806.06	32.53
806.24	33.38
806.43	30.87
806.62	31.11
806.80	30.65
806.99	33.31
807.17	34.91
807.36	32.13
807.55	29.83
807.73	32.00
807.92	28.91
808.11	31.54
808.29	29.51
808.48	29.60
808.66	30.50
808.85	28.78
809.04	28.82
809.22	29.49
809.41	29.03
809.59	29.25
809.78	27.20
809.97	27.68
810.15	27.55
810.34	29.42
810.53	28.91
810.71	28.63
810.90	30.11
811.08	29.70
811.27	24.82
811.45	25.04
811.64	24.65
811.83	26.20
812.01	24.31
812.20	25.10
812.38	30.35
812.57	32.92
812.76	32.34
812.94	33.08
813.13	32.19
813.31	33.34
813.50	33.03
813.68	30.63
813.87	29.70
814.06	32.08
814.24	30.33
814.43	27.14
814.61	26.10
814.80	25.73
814.98	23.37
815.17	22.84
815.36	23.09
815.54	22.30
815.73	25.45
815.91	27.41
816.10	26.51
816.28	25.06
816.47	22.40
816.65	21.78
816.84	22.30
817.03	23.98
817.21	25.82
817.40	28.45
817.58	25.58
817.77	22.88
817.95	20.50
818.14	21.76
818.32	24.35
818.51	23.37
818.69	21.67
818.88	19.96
819.06	21.54
819.25	17.78
819.43	12.66
819.62	16.55
819.80	15.47
819.99	14.21
820.18	11.67
820.36	8.90
820.55	9.57
820.73	12.16
820.92	12.66
821.10	8.60
821.29	8.02
821.47	10.74
821.66	10.18
821.84	15.88
822.03	16.98
822.21	18.17
822.40	20.41
822.58	18.39
822.77	16.09
822.95	14.04
823.14	16.01
823.32	19.08
823.50	18.54
823.69	21.08
823.87	17.91
824.06	17.44
824.24	17.95
824.43	16.14
824.61	20.57
824.80	18.58
824.98	16.92
825.17	18.21
825.35	18.90
825.54	16.18
825.72	13.46
825.91	14.41
826.09	16.07
826.28	15.77
826.46	15.68
826.64	12.06
826.83	14.78
827.01	18.04
827.20	14.11
827.38	12.92
827.57	12.53
827.75	11.90
827.94	10.67
828.12	9.79
828.31	6.85
828.49	8.08
828.67	9.23
828.86	9.53
829.04	9.46
829.23	11.79
829.41	14.06
829.60	19.47
829.78	24.37
829.96	24.65
830.15	25.82
830.33	26.44
830.52	29.27
830.70	25.69
830.88	27.41
831.07	28.95
831.25	25.92
831.44	23.57
831.62	22.34
831.81	19.34
831.99	20.95
832.17	20.42
832.36	23.24
832.54	21.97
832.73	26.53
832.91	22.73
833.09	19.10
833.28	19.94
833.46	20.37
833.65	19.40
833.83	19.08
834.01	16.70
834.20	18.00
834.38	17.18
834.56	16.03
834.75	16.14
834.93	16.94
835.12	18.34
835.30	22.02
835.48	18.32
835.67	18.66
835.85	16.37
836.03	18.51
836.22	16.68
836.40	16.20
836.59	12.68
836.77	9.98
836.95	11.88
837.14	12.90
837.32	12.77
837.50	15.40
837.69	14.97
837.87	14.63
838.05	11.10
838.24	11.08
838.42	9.85
838.60	10.65
838.79	13.11
838.97	11.88
839.15	10.76
839.34	6.57
839.52	6.93
839.70	5.23
839.89	8.84
840.07	10.93
840.25	9.05
840.44	9.38
840.62	10.02
840.80	7.58
840.99	7.22
841.17	7.47
841.35	9.90
841.54	8.01
841.72	8.73
841.90	5.99
842.09	5.94
842.27	9.46
842.45	11.82
842.64	14.24
842.82	13.85
843.00	13.98
843.19	12.29
843.37	13.20
843.55	14.37
843.73	14.52
843.92	13.44
844.10	15.34
844.28	11.28
844.47	10.07
844.65	6.74
844.83	9.40
845.01	9.20
845.20	10.41
845.38	8.01
845.56	8.42
845.75	10.11
845.93	13.96
846.11	11.26
846.29	11.77
846.48	11.10
846.66	11.95
846.84	11.23
847.02	12.03
847.21	12.14
847.39	14.28
847.57	11.82
847.76	12.14
847.94	8.02
848.12	5.81
848.30	7.19
848.49	6.29
848.67	10.98
848.85	9.92
849.03	8.77
849.22	9.05
849.40	8.17
849.58	9.85
849.76	7.00
849.95	7.04
850.13	8.86
850.31	9.29
850.49	13.11
850.67	9.72
850.86	14.37
851.04	15.06
851.22	17.63
851.40	19.08
851.59	21.86
851.77	21.99
851.95	26.07
852.13	26.23
852.31	24.02
852.50	21.71
852.68	20.31
852.86	14.84
853.04	12.10
853.23	9.90
853.41	8.08
853.59	16.42
853.77	18.19
853.95	15.30
854.14	17.76
854.32	17.18
854.50	16.70
854.68	19.33
854.86	19.49
855.04	21.52
855.23	21.63
855.41	23.63
855.59	13.74
855.77	13.74
855.95	13.52
856.14	12.21
856.32	16.77
856.50	17.30
856.68	15.36
856.86	19.98
857.04	20.48
857.23	16.83
857.41	15.02
857.59	13.89
857.77	11.17
857.95	10.24
858.13	10.41
858.32	8.81
858.50	8.10
858.68	9.63
858.86	6.44
859.04	5.83
859.22	8.86
859.41	8.45
859.59	9.55
859.77	10.30
859.95	11.51
860.13	11.99
860.31	13.67
860.49	15.04
860.68	14.97
860.86	14.78
861.04	14.35
861.22	12.64
861.40	11.28
861.58	11.15
861.76	13.44
861.94	13.76
862.13	13.42
862.31	12.19
862.49	11.73
862.67	8.04
862.85	5.05
863.03	4.02
863.21	2.55
863.39	4.28
863.57	2.85
863.76	4.58
863.94	5.70
864.12	5.21
864.30	5.25
864.48	4.86
864.66	10.65
864.84	12.05
865.02	14.95
865.20	16.76
865.38	17.43
865.57	18.52
865.75	15.29
865.93	12.79
866.11	11.00
866.29	14.47
866.47	11.80
866.65	7.84
866.83	9.23
867.01	4.47
867.19	4.90
867.37	1.88
867.55	0.74
867.73	1.88
867.92	2.70
868.10	4.13
868.28	3.13
868.46	4.97
868.64	4.99
868.82	3.50
869.00	5.98
869.18	7.82
869.36	9.20
869.54	10.41
869.72	11.67
869.90	11.23
870.08	9.74
870.26	6.22
870.44	2.83
870.62	4.28
870.80	6.40
870.98	7.52
871.16	4.82
871.34	4.24
871.53	3.93
871.71	0.34
871.89	0.34
872.07	3.24
872.25	5.55
872.43	6.72
872.61	5.77
872.79	5.83
872.97	6.37
873.15	5.92
873.33	8.02
873.51	6.05
873.69	10.00
873.87	13.55
874.05	13.81
874.23	13.63
874.41	16.14
874.59	17.07
874.77	14.47
874.95	9.66
875.13	11.62
875.31	12.83
875.49	13.00
875.67	6.50
875.85	2.77
876.03	0.61
876.21	-0.58
876.39	-1.04
876.57	-1.60
876.75	-1.77
876.93	1.41
877.11	1.62
877.29	0.09
877.47	4.47
877.65	7.65
877.82	7.91
878.00	8.02
878.18	8.73
878.36	10.17
878.54	8.94
878.72	10.87
878.90	11.71
879.08	9.96
879.26	6.74
879.44	2.94
879.62	4.88
879.80	2.53
879.98	3.57
880.16	3.35
880.34	0.91
880.52	0.99
880.70	0.67
880.88	1.08
881.06	4.65
881.24	6.11
881.42	7.54
881.59	6.42
881.77	10.82
881.95	9.12
882.13	7.17
882.31	9.16
882.49	8.66
882.67	8.36
882.85	4.95
883.03	4.08
883.21	4.13
883.39	5.60
883.57	3.95
883.75	3.76
883.92	4.88
884.10	6.20
884.28	5.12
884.46	5.40
884.64	6.35
884.82	11.73
885.00	12.01
885.18	12.60
885.36	9.87
885.54	10.35
885.71	7.73
885.89	8.42
886.07	8.71
886.25	13.89
886.43	14.60
886.61	12.75
886.79	10.74
886.97	10.11
887.15	11.73
887.32	11.49
887.50	10.56
887.68	12.25
887.86	14.69
888.04	13.54
888.22	9.33
888.40	7.06
888.57	9.51
888.75	7.37
888.93	9.29
889.11	6.01
889.29	5.60
889.47	8.02
889.65	7.56
889.82	3.35
890.00	3.52
890.18	2.48
890.36	3.89
890.54	3.74
890.72	1.71
890.90	-0.04
891.07	-0.47
891.25	-1.43
891.43	-1.19
891.61	1.23
891.79	0.32
891.97	-2.87
892.14	-3.24
892.32	-3.37
892.50	-2.98
892.68	2.01
892.86	-1.71
893.03	-0.34
893.21	3.85
893.39	1.12
893.57	-1.69
893.75	-0.76
893.93	-0.04
894.10	0.52
894.28	1.04
894.46	1.21
894.64	-1.45
894.82	1.14
894.99	2.68
895.17	-0.13
895.35	1.43
895.53	2.16
895.71	1.55
895.88	2.07
896.06	-0.22
896.24	1.08
896.42	2.74
896.59	4.11
896.77	3.69
896.95	2.05
897.13	1.04
897.31	0.11
897.48	-0.17
897.66	-0.22
897.84	0.13
898.02	0.78
898.19	-2.90
898.37	-8.51
898.55	-7.04
898.73	-7.35
898.91	-8.23
899.08	-6.78
899.26	-4.77
899.44	-5.32
899.62	-5.18
899.79	-4.51
899.97	-3.05
900.15	-0.30
900.33	-0.28
900.50	-1.68
900.68	-1.40
900.86	2.77
901.04	2.36
901.21	1.45
901.39	2.14
901.57	3.70
901.74	4.15
901.92	4.04
902.10	2.87
902.28	5.03
902.45	4.80
902.63	2.44
902.81	3.24
902.99	2.72
903.16	1.62
903.34	0.73
903.52	-0.15
903.69	-2.09
903.87	-2.49
904.05	-1.34
904.22	-1.69
904.40	-3.89
904.58	-0.63
904.76	-4.69
904.93	-4.52
905.11	-4.21
905.29	-1.01
905.46	-0.76
905.64	2.12
905.82	-0.82
905.99	-2.68
906.17	-3.22
906.35	0.58
906.53	1.23
906.70	4.19
906.88	5.85
907.06	8.30
907.23	5.72
907.41	4.26
907.59	4.80
907.76	6.16
907.94	8.49
908.12	9.48
908.29	9.46
908.47	7.63
908.65	2.59
908.82	2.40
909.00	-1.41
909.18	-0.39
909.35	1.86
909.53	0.91
909.71	0.28
909.88	-0.07
910.06	3.26
910.23	3.76
910.41	3.56
910.59	6.09
910.76	6.52
910.94	12.18
911.12	13.14
911.29	12.98
911.47	11.99
911.65	13.31
911.82	11.73
912.00	6.74
912.17	3.80
912.35	4.77
912.53	5.21
912.70	3.13
912.88	-0.69
913.06	-0.58
913.23	-3.22
913.41	-2.72
913.58	2.44
913.76	4.45
913.94	6.16
914.11	8.53
914.29	5.98
914.46	6.65
914.64	9.77
914.82	12.55
914.99	11.69
915.17	15.86
915.34	16.98
915.52	13.67
915.70	13.76
915.87	13.87
916.05	12.08
916.22	14.99
916.40	14.48
916.57	10.39
916.75	8.86
916.93	9.48
917.10	9.92
917.28	8.02
917.45	8.88
917.63	6.42
917.80	5.21
917.98	3.95
918.16	3.59
918.33	1.36
918.51	4.56
918.68	2.72
918.86	0.60
919.03	-2.66
919.21	-1.17
919.39	-2.61
919.56	-1.82
919.74	0.17
919.91	1.60
920.09	-0.50
920.26	1.15
920.44	-0.61
920.61	-3.22
920.79	-1.30
920.96	-2.55
921.14	-3.87
921.31	-5.96
921.49	-5.73
921.67	-5.94
921.84	-5.51
922.02	-2.27
922.19	-2.76
922.37	-2.57
922.54	1.45
922.72	-2.61
922.89	0.07
923.07	-1.12
923.24	1.90
923.42	1.12
923.59	0.82
923.77	3.02
923.94	-0.54
924.12	-1.45
924.29	1.51
924.47	0.60
924.64	3.87
924.82	5.25
924.99	7.97
925.17	5.10
925.34	7.76
925.52	8.69
925.69	6.27
925.87	8.88
926.04	11.88
926.22	12.88
926.39	12.03
926.57	13.68
926.74	11.73
926.91	11.39
927.09	13.14
927.26	10.98
927.44	8.21
927.61	8.08
927.79	6.70
927.96	7.67
928.14	4.32
928.31	9.77
928.49	7.67
928.66	7.37
928.84	6.39
929.01	6.27
929.18	7.65
929.36	8.69
929.53	7.32
929.71	5.90
929.88	4.52
930.06	4.69
930.23	0.35
930.41	-2.81
930.58	-2.03
930.75	-0.84
930.93	-1.04
931.10	-2.77
931.28	-4.30
931.45	-1.04
931.63	-0.76
931.80	-2.22
931.97	-4.56
932.15	-4.65
932.32	-1.75
932.50	-6.68
932.67	-5.96
932.84	-5.16
933.02	-4.13
933.19	-2.96
933.37	-3.80
933.54	-0.52
933.71	3.74
933.89	6.18
934.06	4.58
934.24	5.68
934.41	11.17
934.58	8.99
934.76	8.69
934.93	9.64
935.11	9.85
935.28	9.23
935.45	6.83
935.63	4.51
935.80	2.92
935.98	4.41
936.15	2.92
936.32	-0.48
936.50	1.15
936.67	-1.58
936.84	-1.40
937.02	-1.19
937.19	-3.48
937.36	-5.51
937.54	-10.07
937.71	-10.15
937.89	-11.17
938.06	-11.23
938.23	-8.56
938.41	-10.95
938.58	-7.11
938.75	-7.93
938.93	-7.50
939.10	-6.48
939.27	-0.99
939.45	1.41
939.62	1.51
939.79	2.36
939.97	2.98
940.14	0.39
940.31	1.75
940.49	-0.48
940.66	-0.41
940.83	-1.99
941.01	-1.82
941.18	-5.05
941.35	-3.97
941.53	0.06
941.70	1.06
941.87	-0.13
942.05	1.58
942.22	1.55
942.39	1.97
942.57	4.78
942.74	8.27
942.91	10.04
943.08	9.92
943.26	8.96
943.43	6.63
943.60	6.50
943.78	8.86
943.95	9.25
944.12	8.94
944.29	10.54
944.47	5.12
944.64	3.63
944.81	1.92
944.99	0.63
945.16	-2.40
945.33	-4.30
945.50	-2.18
945.68	-3.80
945.85	-8.88
946.02	-8.32
946.20	-9.79
946.37	-6.59
946.54	-6.29
946.71	-6.14
946.89	-0.89
947.06	2.81
947.23	1.47
947.40	0.28
947.58	4.34
947.75	8.47
947.92	9.38
948.09	10.76
948.27	9.68
948.44	6.59
948.61	6.27
948.78	3.74
948.96	2.42
949.13	5.49
949.30	5.18
949.47	0.32
949.65	-0.45
949.82	-3.18
949.99	-4.49
950.16	-4.30
950.33	-7.17
950.51	-7.95
950.68	-6.40
950.85	-6.09
951.02	-4.51
951.20	-4.39
951.37	-2.85
951.54	-3.17
951.71	-2.22
951.88	-2.29
952.06	-1.79
952.23	2.29
952.40	5.16
952.57	1.41
952.74	1.14
952.92	-2.68
953.09	-2.92
953.26	-2.09
953.43	-0.13
953.60	-1.25
953.77	1.69
953.95	2.25
954.12	2.12
954.29	-0.07
954.46	2.77
954.63	4.39
954.81	6.50
954.98	3.43
955.15	1.97
955.32	4.08
955.49	4.39
955.66	4.26
955.84	3.20
956.01	4.36
956.18	3.76
956.35	0.47
956.52	-2.03
956.69	-2.98
956.87	-2.07
957.04	-0.24
957.21	-2.94
957.38	-0.47
957.55	-1.68
957.72	-0.48
957.89	-2.14
958.07	-2.31
958.24	-2.05
958.41	-0.34
958.58	0.78
958.75	0.47
958.92	-3.22
959.09	-2.31
959.26	-1.51
959.44	-1.21
959.61	-5.70
959.78	-3.65
959.95	-2.66
960.12	-1.04
960.29	0.48
960.46	-3.93
960.63	-2.12
960.81	-1.10
960.98	-0.56
961.15	-1.77
961.32	-3.87
961.49	-1.40
961.66	0.89
961.83	2.55
962.00	0.93
962.17	-1.66
962.34	-0.02
962.52	-0.15
962.69	-0.58
962.86	-2.96
963.03	-5.18
963.20	-1.34
963.37	-1.53
963.54	-3.85
963.71	-2.83
963.88	-4.54
964.05	-4.10
964.22	-1.17
964.39	1.45
964.56	2.81
964.74	4.17
964.91	5.77
965.08	1.62
965.25	2.23
965.42	1.28
965.59	-1.58
965.76	-1.95
965.93	-1.84
966.10	1.12
966.27	-3.56
966.44	-4.19
966.61	-2.94
966.78	-2.98
966.95	-1.27
967.12	1.88
967.29	-0.11
967.46	0.80
967.63	5.19
967.80	5.92
967.97	3.39
968.14	3.22
968.32	2.87
968.49	2.76
968.66	3.46
968.83	2.79
969.00	1.77
969.17	3.98
969.34	3.84
969.51	-0.39
969.68	2.20
969.85	1.47
970.02	1.69
970.19	1.64
970.36	-0.82
970.53	-0.32
970.70	0.17
970.87	-4.56
971.04	-3.84
971.21	-4.93
971.38	-3.41
971.55	-4.19
971.72	-3.46
971.89	-0.60
972.06	0.93
972.23	2.14
972.40	2.40
972.57	1.64
972.74	5.59
972.91	4.51
973.07	3.61
973.24	3.18
973.41	-0.13
973.58	-3.56
973.75	-2.96
973.92	-2.14
974.09	-3.63
974.26	-4.41
974.43	-4.56
974.60	-5.23
974.77	-5.53
974.94	-3.09
975.11	1.02
975.28	0.45
975.45	0.07
975.62	-0.78
975.79	-2.03
975.96	0.60
976.13	1.30
976.30	1.41
976.47	-1.25
976.64	-2.77
976.80	-5.94
976.97	-10.69
977.14	-9.14
977.31	-7.54
977.48	-7.37
977.65	-6.07
977.82	-8.43
977.99	-7.02
978.16	-8.62
978.33	-5.60
978.50	-5.60
978.67	-1.99
978.83	-0.61
979.00	-0.95
979.17	0.02
979.34	0.41
979.51	1.36
979.68	3.00
979.85	1.36
980.02	2.29
980.19	1.10
980.36	2.64
980.52	0.80
980.69	3.80
980.86	3.70
981.03	5.55
981.20	5.94
981.37	4.69
981.54	2.12
981.71	-0.84
981.88	-0.20
982.04	0.65
982.21	1.79
982.38	1.95
982.55	0.80
982.72	5.70
982.89	1.66
983.06	-0.71
983.22	-0.48
983.39	1.92
983.56	5.86
983.73	6.07
983.90	6.91
984.07	4.17
984.24	6.13
984.40	5.19
984.57	1.66
984.74	5.14
984.91	3.28
985.08	4.73
985.25	6.39
985.41	4.78
985.58	4.95
985.75	6.59
985.92	13.57
986.09	7.21
986.26	7.41
986.42	7.82
986.59	6.01
986.76	10.80
986.93	7.06
987.10	5.18
987.27	4.11
987.43	5.40
987.60	3.57
987.77	1.32
987.94	6.40
988.11	7.65
988.27	2.09
988.44	5.64
988.61	5.68
988.78	8.55
988.95	10.00
989.11	9.89
989.28	6.55
989.45	4.06
989.62	3.80
989.79	7.04
989.95	6.33
990.12	9.23
990.29	8.32
990.46	8.17
990.62	8.04
990.79	7.02
990.96	6.89
991.13	7.30
991.30	10.59
991.46	5.19
991.63	4.90
991.80	3.98
991.97	6.29
992.13	6.61
992.30	3.54
992.47	3.39
992.64	3.30
992.80	3.82
992.97	6.53
993.14	5.36
993.31	7.75
993.47	5.40
993.64	5.85
993.81	6.67
993.98	2.12
994.14	3.98
994.31	-0.71
994.48	-2.92
994.64	-2.09
994.81	-4.58
994.98	-6.94
995.15	-4.02
995.31	-4.17
995.48	-2.36
995.65	-0.99
995.82	2.51
995.98	0.84
996.15	1.92
996.32	5.38
996.48	6.18
996.65	7.65
996.82	9.40
996.99	6.78
997.15	5.03
997.32	5.25
997.49	3.74
997.65	2.49
997.82	1.43
997.99	2.44
998.15	1.06
998.32	1.14
998.49	-0.26
998.65	3.17
998.82	1.90
998.99	3.59
999.15	2.92
999.32	0.22
999.49	-0.06
999.65	0.86
999.82	-0.86
999.99	-1.60
1000.15	-3.24
1000.32	-1.47
1000.49	-2.98
1000.65	-0.30
1000.82	-3.63
1000.99	-4.28
1001.15	-0.95
1001.32	-0.32
1001.49	-0.54
1001.65	1.99
1001.82	3.20
1001.99	1.86
1002.15	3.65
1002.32	1.15
1002.49	0.97
1002.65	3.56
1002.82	5.12
1002.99	4.00
1003.15	2.76
1003.32	0.82
1003.48	2.79
1003.65	3.31
1003.82	5.01
1003.98	2.27
1004.15	0.82
1004.32	2.23
1004.48	4.45
1004.65	3.17
1004.81	4.93
1004.98	4.04
1005.15	7.24
1005.31	5.49
1005.48	5.70
1005.64	5.83
1005.81	4.11
1005.98	5.10
1006.14	1.34
1006.31	0.15
1006.47	-0.61
1006.64	-2.77
1006.81	-1.10
1006.97	-0.28
1007.14	-0.45
1007.30	-1.47
1007.47	-3.50
1007.63	-3.43
1007.80	-2.77
1007.97	-1.90
1008.13	-2.66
1008.30	-1.25
1008.46	-1.23
1008.63	-2.42
1008.79	-1.84
1008.96	-1.45
1009.13	-5.08
1009.29	-3.09
1009.46	-0.86
1009.62	0.76
1009.79	0.04
1009.95	1.41
1010.12	1.19
1010.28	-2.42
1010.45	-2.76
1010.62	-3.44
1010.78	-3.48
1010.95	-1.66
1011.11	-1.75
1011.28	-3.33
1011.44	-4.84
1011.61	-3.54
1011.77	-5.49
1011.94	-4.84
1012.10	0.95
1012.27	1.17
1012.43	-0.50
1012.60	0.02
1012.76	-1.99
1012.93	-2.87
1013.10	-1.68
1013.26	0.73
1013.43	1.58
1013.59	2.79
1013.76	2.79
1013.92	0.15
1014.09	1.02
1014.25	-0.71
1014.42	-2.55
1014.58	1.95
1014.75	1.36
1014.91	-1.15
1015.08	-1.58
1015.24	-1.51
1015.41	-1.62
1015.57	-0.82
1015.73	-0.61
1015.90	-0.69
1016.06	3.13
1016.23	4.47
1016.39	1.77
1016.56	3.59
1016.72	2.29
1016.89	-0.04
1017.05	0.45
1017.22	-0.15
1017.38	-1.82
1017.55	-2.51
1017.71	-3.20
1017.88	-5.01
1018.04	-2.83
1018.21	-1.94
1018.37	-1.01
1018.53	1.66
1018.70	2.70
1018.86	1.69
1019.03	1.41
1019.19	0.88
1019.36	4.43
1019.52	3.89
1019.69	5.10
1019.85	3.22
1020.01	2.74
1020.18	0.34
1020.34	0.97
1020.51	-2.55
1020.67	-2.22
1020.84	-1.23
1021.00	-1.06
1021.16	-3.22
1021.33	-1.01
1021.49	-1.92
1021.66	-1.69
1021.82	-2.07
1021.98	0.06
1022.15	2.87
1022.31	6.03
1022.48	4.60
1022.64	5.10
1022.80	5.19
1022.97	4.64
1023.13	6.31
1023.30	7.19
1023.46	7.61
1023.62	9.46
1023.79	8.86
1023.95	8.86
1024.12	9.01
1024.28	11.15
1024.44	12.83
1024.61	14.39
1024.77	14.91
1024.93	12.14
1025.10	10.80
1025.26	9.46
1025.43	9.77
1025.59	8.64
1025.75	7.47
1025.92	7.86
1026.08	8.43
1026.24	6.33
1026.41	4.95
1026.57	5.23
1026.73	4.78
1026.90	6.50
1027.06	3.98
1027.23	0.20
1027.39	-0.97
1027.55	-3.98
1027.72	-3.28
1027.88	-1.60
1028.04	-3.84
1028.21	-4.69
1028.37	-5.08
1028.53	-3.78
1028.70	-8.23
1028.86	-5.62
1029.02	-2.36
1029.19	-1.32
1029.35	1.86
1029.51	-0.28
1029.67	-2.10
1029.84	-0.58
1030.00	2.09
1030.16	0.41
1030.33	-0.65
1030.49	3.97
1030.65	3.13
1030.82	2.66
1030.98	3.07
1031.14	-0.39
1031.31	1.81
1031.47	1.94
1031.63	1.36
1031.79	-0.89
1031.96	-0.41
1032.12	-0.15
1032.28	-1.32
1032.45	2.74
1032.61	3.15
1032.77	2.25
1032.93	4.15
1033.10	3.54
1033.26	0.06
1033.42	1.17
1033.58	5.14
1033.75	5.77
1033.91	1.32
1034.07	0.15
1034.24	-3.52
1034.40	-3.52
1034.56	-1.21
1034.72	-2.05
1034.89	-2.68
1035.05	-0.71
1035.21	-1.73
1035.37	-4.93
1035.54	-5.14
1035.70	0.84
1035.86	2.57
1036.02	3.00
1036.19	4.28
1036.35	4.49
1036.51	5.05
1036.67	5.46
1036.83	3.54
1037.00	0.61
1037.16	-0.39
1037.32	0.13
1037.48	-0.43
1037.65	-0.99
1037.81	-0.34
1037.97	-0.00
1038.13	-2.01
1038.29	-0.63
1038.46	-2.03
1038.62	1.01
1038.78	4.88
1038.94	5.75
1039.10	4.43
1039.27	2.29
1039.43	1.40
1039.59	-0.43
1039.75	-2.18
1039.91	-1.51
1040.08	-1.04
1040.24	-2.76
1040.40	-1.73
1040.56	-2.66
1040.72	-2.35
1040.89	0.15
1041.05	0.30
1041.21	1.73
1041.37	3.15
1041.53	3.26
1041.69	4.82
1041.86	3.31
1042.02	3.91
1042.18	4.39
1042.34	6.91
1042.50	6.94
1042.66	4.43
1042.83	7.65
1042.99	8.27
1043.15	7.82
1043.31	7.58
1043.47	7.09
1043.63	6.46
1043.79	7.69
1043.96	3.85
1044.12	1.97
1044.28	3.39
1044.44	6.40
1044.60	5.38
1044.76	4.69
1044.92	4.47
1045.09	6.09
1045.25	4.62
1045.41	7.02
1045.57	7.39
1045.73	5.36
1045.89	4.77
1046.05	1.30
1046.21	18.64
1046.38	-2.87
1046.54	-30.51
1046.70	-4.92
1046.86	-9.63
>>>>>End Processed Spectral Data<<<<<
