SpectraSuite Data File
++++++++++++++++++++++++++++++++++++
Date: Mon May 06 13:49:03 CDT 2013
User: Students
Dark Spectrum Present: Yes
Reference Spectrum Present: Yes
Number of Sampled Component Spectra: 1
Spectrometers: USB4H00887
Integration Time (usec): 100000 (USB4H00887)
Spectra Averaged: 10 (USB4H00887)
Boxcar Smoothing: 5 (USB4H00887)
Correct for Electrical Dark: No (USB4H00887)
Strobe/Lamp Enabled: No (USB4H00887)
Correct for Detector Non-linearity: No (USB4H00887)
Correct for Stray Light: No (USB4H00887)
Number of Pixels in Processed Spectrum: 3648
>>>>>Begin Processed Spectral Data<<<<<
345.83	-8.40
346.05	-8.40
346.26	-8.40
346.48	-7.99
346.70	0.00
346.92	-8.30
347.14	-8.43
347.35	-7.48
347.57	-9.07
347.79	-11.21
348.01	-11.08
348.23	-9.10
348.44	-6.46
348.66	-7.07
348.88	-5.98
349.10	-8.12
349.32	-6.67
349.53	-6.61
349.75	-6.01
349.97	-3.33
350.19	2.63
350.41	2.38
350.62	0.95
350.84	1.28
351.06	0.43
351.28	3.05
351.50	6.01
351.71	5.40
351.93	7.43
352.15	6.57
352.37	5.99
352.58	6.52
352.80	7.60
353.02	8.49
353.24	8.14
353.46	7.54
353.67	4.95
353.89	4.02
354.11	4.34
354.33	1.60
354.54	1.94
354.76	2.72
354.98	2.01
355.20	1.68
355.41	-1.47
355.63	-1.45
355.85	-1.49
356.07	-2.87
356.28	-4.17
356.50	-3.97
356.72	-3.00
356.94	-3.28
357.15	-3.89
357.37	-6.50
357.59	-4.73
357.81	-2.77
358.02	-4.82
358.24	-1.12
358.46	2.72
358.68	3.65
358.89	5.59
359.11	6.26
359.33	9.38
359.55	8.90
359.76	10.07
359.98	8.43
360.20	9.55
360.42	11.80
360.63	7.60
360.85	4.52
361.07	4.67
361.29	3.26
361.50	3.11
361.72	1.64
361.94	1.40
362.15	-1.15
362.37	-1.41
362.59	-1.17
362.81	-1.28
363.02	0.93
363.24	-0.34
363.46	0.13
363.68	-2.23
363.89	-3.41
364.11	-5.29
364.33	-3.59
364.54	-2.64
364.76	-2.42
364.98	-0.45
365.20	-3.02
365.41	-4.47
365.63	-2.63
365.85	-4.60
366.06	-3.11
366.28	-0.47
366.50	0.06
366.71	-0.07
366.93	-2.51
367.15	-1.81
367.37	-3.57
367.58	0.04
367.80	2.20
368.02	3.70
368.23	4.71
368.45	4.62
368.67	4.56
368.88	5.36
369.10	3.13
369.32	6.55
369.53	3.89
369.75	6.24
369.97	4.69
370.19	3.78
370.40	3.30
370.62	4.84
370.84	5.99
371.05	5.08
371.27	4.88
371.49	7.32
371.70	7.28
371.92	8.51
372.14	6.13
372.35	8.30
372.57	9.09
372.79	9.40
373.00	10.07
373.22	9.66
373.44	7.84
373.65	7.48
373.87	4.90
374.09	3.26
374.30	4.49
374.52	4.17
374.74	2.05
374.95	1.28
375.17	-0.61
375.39	-3.65
375.60	-4.02
375.82	-0.47
376.04	-0.28
376.25	-1.36
376.47	0.69
376.68	-2.72
376.90	-3.15
377.12	-0.99
377.33	-1.68
377.55	-0.30
377.77	0.09
377.98	0.35
378.20	-0.89
378.42	1.34
378.63	6.39
378.85	7.56
379.07	10.85
379.28	7.76
379.50	6.85
379.71	7.47
379.93	7.11
380.15	10.22
380.36	10.13
380.58	8.88
380.80	8.42
381.01	3.28
381.23	2.92
381.44	4.86
381.66	7.88
381.88	5.38
382.09	6.42
382.31	6.63
382.53	4.93
382.74	7.21
382.96	7.09
383.17	5.99
383.39	9.72
383.61	10.15
383.82	6.22
384.04	4.54
384.25	6.89
384.47	3.56
384.69	1.01
384.90	1.79
385.12	-0.67
385.33	0.02
385.55	-0.91
385.77	-2.07
385.98	-4.71
386.20	-5.36
386.41	-1.68
386.63	-2.77
386.85	-0.20
387.06	-2.20
387.28	-2.23
387.49	-2.36
387.71	-3.67
387.93	-6.03
388.14	-3.74
388.36	-5.62
388.57	-3.82
388.79	-4.17
389.01	-3.09
389.22	-4.86
389.44	0.45
389.65	-0.37
389.87	-0.24
390.08	2.29
390.30	5.51
390.52	3.50
390.73	5.18
390.95	3.48
391.16	0.09
391.38	-0.78
391.59	-1.64
391.81	-4.58
392.03	-4.65
392.24	-6.53
392.46	-9.20
392.67	-10.50
392.89	-9.94
393.10	-9.07
393.32	-7.56
393.53	-5.03
393.75	-4.08
393.97	-1.10
394.18	0.58
394.40	1.88
394.61	3.61
394.83	6.63
395.04	8.02
395.26	7.17
395.47	7.91
395.69	8.66
395.91	7.71
396.12	7.56
396.34	6.26
396.55	5.81
396.77	4.34
396.98	4.67
397.20	1.47
397.41	0.43
397.63	-0.74
397.84	-2.07
398.06	-3.87
398.27	0.76
398.49	0.39
398.71	-0.48
398.92	-0.63
399.14	-1.30
399.35	-1.68
399.57	-1.19
399.78	-0.80
400.00	0.89
400.21	2.16
400.43	1.55
400.64	-2.83
400.86	-3.03
401.07	2.01
401.29	1.95
401.50	0.74
401.72	-2.31
401.93	-1.92
402.15	-3.35
402.36	-3.82
402.58	-5.01
402.79	-3.80
403.01	-5.44
403.22	-5.51
403.44	-8.47
403.65	-6.65
403.87	0.11
404.08	4.84
404.30	2.63
404.51	3.44
404.73	3.39
404.94	3.95
405.16	5.96
405.37	7.86
405.59	9.90
405.80	8.73
406.02	8.69
406.23	2.98
406.45	1.97
406.66	5.10
406.88	2.27
407.09	2.25
407.31	1.28
407.52	-0.93
407.74	-0.88
407.95	-1.73
408.17	-1.06
408.38	-1.06
408.60	0.00
408.81	0.00
409.03	1.58
409.24	3.07
409.45	4.36
409.67	5.77
409.88	6.72
410.10	5.57
410.31	5.51
410.53	1.43
410.74	-1.75
410.96	-2.63
411.17	-4.54
411.39	-7.06
411.60	-4.24
411.82	-4.62
412.03	-3.89
412.24	-5.66
412.46	-2.98
412.67	-5.38
412.89	-4.19
413.10	-4.49
413.32	-2.03
413.53	-4.43
413.75	-7.89
413.96	-10.65
414.17	-12.68
414.39	-16.10
414.60	-14.99
414.82	-16.81
415.03	-14.32
415.25	-9.68
415.46	-4.17
415.68	-4.56
415.89	3.39
416.10	5.85
416.32	7.06
416.53	7.73
416.75	9.61
416.96	10.04
417.18	8.15
417.39	8.97
417.60	8.12
417.82	3.31
418.03	2.09
418.25	0.60
418.46	4.26
418.67	3.74
418.89	6.93
419.10	7.35
419.32	6.31
419.53	7.17
419.75	5.14
419.96	3.18
420.17	2.33
420.39	4.15
420.60	0.80
420.82	-0.50
421.03	-2.94
421.24	-6.96
421.46	-6.85
421.67	-5.59
421.89	-2.85
422.10	-3.82
422.31	-1.40
422.53	-0.34
422.74	-0.88
422.96	1.60
423.17	-0.89
423.38	2.83
423.60	1.62
423.81	2.96
424.03	4.08
424.24	3.37
424.45	4.04
424.67	3.46
424.88	4.52
425.09	2.79
425.31	-0.15
425.52	1.19
425.74	-0.28
425.95	3.31
426.16	-0.37
426.38	-3.13
426.59	-3.28
426.80	-3.67
427.02	-1.47
427.23	-2.29
427.45	0.28
427.66	4.56
427.87	4.41
428.09	7.06
428.30	9.72
428.51	12.55
428.73	12.85
428.94	12.21
429.15	13.07
429.37	11.51
429.58	14.15
429.79	11.39
430.01	7.86
430.22	7.69
430.44	6.31
430.65	1.53
430.86	-0.04
431.08	-0.34
431.29	1.10
431.50	0.86
431.72	-1.21
431.93	-1.08
432.14	0.58
432.36	2.90
432.57	3.85
432.78	3.09
433.00	1.92
433.21	3.00
433.42	5.70
433.64	5.36
433.85	6.44
434.06	7.15
434.28	4.86
434.49	4.71
434.70	4.67
434.92	4.26
435.13	4.80
435.34	7.09
435.56	3.61
435.77	1.34
435.98	-0.02
436.20	0.39
436.41	-1.06
436.62	-1.01
436.83	-3.31
437.05	-3.37
437.26	-2.51
437.47	-1.86
437.69	-1.27
437.90	3.28
438.11	7.15
438.33	7.65
438.54	4.78
438.75	6.48
438.97	6.33
439.18	7.02
439.39	6.85
439.60	6.68
439.82	7.99
440.03	6.87
440.24	5.73
440.46	3.82
440.67	3.20
440.88	4.88
441.10	5.88
441.31	8.10
441.52	10.76
441.73	7.95
441.95	7.41
442.16	5.42
442.37	4.65
442.58	6.55
442.80	5.14
443.01	6.93
443.22	7.02
443.44	4.77
443.65	2.94
443.86	3.65
444.07	4.86
444.29	5.47
444.50	5.66
444.71	7.73
444.92	3.80
445.14	2.44
445.35	0.89
445.56	2.35
445.78	3.50
445.99	2.64
446.20	1.32
446.41	0.17
446.63	-1.10
446.84	-0.54
447.05	0.95
447.26	1.71
447.48	5.46
447.69	4.92
447.90	2.77
448.11	2.07
448.33	1.38
448.54	-0.19
448.75	0.74
448.96	3.26
449.18	2.25
449.39	1.51
449.60	4.52
449.81	3.63
450.03	3.52
450.24	4.52
450.45	3.52
450.66	6.74
450.87	6.72
451.09	6.48
451.30	5.12
451.51	5.79
451.72	7.21
451.94	5.36
452.15	6.33
452.36	7.82
452.57	5.85
452.78	8.01
453.00	7.84
453.21	9.90
453.42	10.05
453.63	14.21
453.85	16.42
454.06	15.01
454.27	15.68
454.48	13.29
454.69	14.97
454.91	20.55
455.12	22.25
455.33	22.79
455.54	23.05
455.75	25.84
455.97	22.34
456.18	21.82
456.39	23.76
456.60	23.66
456.81	23.87
457.03	25.23
457.24	22.53
457.45	21.82
457.66	20.29
457.87	21.75
458.09	20.46
458.30	18.04
458.51	16.53
458.72	15.77
458.93	15.56
459.15	20.00
459.36	19.64
459.57	21.41
459.78	20.44
459.99	23.38
460.20	21.99
460.42	21.84
460.63	29.25
460.84	31.43
461.05	30.24
461.26	31.43
461.47	32.36
461.69	33.72
461.90	32.40
462.11	35.71
462.32	34.80
462.53	38.37
462.74	40.92
462.96	38.11
463.17	41.76
463.38	42.99
463.59	43.75
463.80	43.83
464.01	43.64
464.23	46.68
464.44	47.75
464.65	51.87
464.86	48.98
465.07	49.84
465.28	52.45
465.49	51.65
465.71	54.51
465.92	56.54
466.13	55.63
466.34	57.10
466.55	56.00
466.76	54.94
466.97	53.66
467.19	55.28
467.40	57.32
467.61	56.39
467.82	55.76
468.03	58.37
468.24	60.97
468.45	65.63
468.66	65.53
468.88	69.69
469.09	72.33
469.30	76.18
469.51	80.04
469.72	76.22
469.93	80.17
470.14	80.86
470.35	79.67
470.57	79.20
470.78	77.02
470.99	80.69
471.20	79.72
471.41	77.93
471.62	79.85
471.83	82.92
472.04	88.71
472.25	87.63
472.47	92.66
472.68	96.92
472.89	99.70
473.10	104.33
473.31	107.33
473.52	110.68
473.73	116.68
473.94	116.72
474.15	116.47
474.36	118.00
474.57	122.79
474.79	125.30
475.00	126.06
475.21	126.64
475.42	126.08
475.63	123.90
475.84	127.64
476.05	133.21
476.26	134.44
476.47	137.08
476.68	139.22
476.89	140.81
477.10	143.67
477.32	146.02
477.53	150.51
477.74	151.90
477.95	155.61
478.16	155.63
478.37	154.04
478.58	157.28
478.79	159.67
479.00	163.41
479.21	161.68
479.42	160.78
479.63	161.08
479.84	161.38
480.05	164.66
480.26	169.63
480.47	172.27
480.69	174.13
480.90	173.48
481.11	172.94
481.32	177.54
481.53	183.18
481.74	188.13
481.95	190.63
482.16	193.87
482.37	198.88
482.58	199.68
482.79	202.38
483.00	208.65
483.21	212.47
483.42	220.79
483.63	221.26
483.84	223.53
484.05	227.16
484.26	230.79
484.47	238.68
484.68	238.20
484.89	241.16
485.10	243.26
485.31	243.62
485.52	248.03
485.73	247.26
485.94	248.23
486.15	252.25
486.37	255.64
486.58	256.31
486.79	254.75
487.00	258.16
487.21	261.53
487.42	266.96
487.63	268.00
487.84	269.92
488.05	272.60
488.26	279.57
488.47	282.08
488.68	283.63
488.89	289.55
489.10	289.01
489.31	294.72
489.52	294.78
489.73	295.63
489.94	297.55
490.15	301.93
490.36	304.68
490.57	301.74
490.78	303.51
490.99	302.91
491.20	301.09
491.41	304.40
491.62	302.73
491.83	304.57
492.04	306.08
492.25	309.82
492.45	309.82
492.66	310.62
492.87	313.02
493.08	314.27
493.29	314.87
493.50	319.93
493.71	322.70
493.92	328.81
494.13	332.66
494.34	333.37
494.55	332.74
494.76	332.89
494.97	336.15
495.18	340.82
495.39	341.38
495.60	346.50
495.81	348.19
496.02	347.45
496.23	343.67
496.44	347.22
496.65	350.91
496.86	357.02
497.07	361.02
497.28	359.42
497.49	358.38
497.70	362.79
497.91	361.41
498.12	362.60
498.32	368.22
498.53	372.88
498.74	371.58
498.95	374.37
499.16	376.03
499.37	378.97
499.58	383.86
499.79	384.87
500.00	384.50
500.21	386.56
500.42	389.95
500.63	394.31
500.84	396.60
501.05	404.03
501.26	406.61
501.46	409.95
501.67	409.74
501.88	414.08
502.09	421.43
502.30	425.23
502.51	430.00
502.72	431.80
502.93	431.79
503.14	435.66
503.35	432.87
503.56	435.71
503.77	435.17
503.97	440.39
504.18	442.58
504.39	443.55
504.60	444.84
504.81	448.43
505.02	451.30
505.23	451.60
505.44	454.93
505.65	456.60
505.86	454.91
506.07	454.39
506.27	457.31
506.48	459.81
506.69	460.55
506.90	464.96
507.11	463.83
507.32	465.22
507.53	471.22
507.74	471.76
507.95	477.94
508.15	484.08
508.36	489.45
508.57	491.87
508.78	493.08
508.99	495.81
509.20	497.10
509.41	503.07
509.62	506.28
509.82	508.31
510.03	509.22
510.24	510.13
510.45	511.42
510.66	516.03
510.87	517.37
511.08	517.73
511.29	519.92
511.49	526.16
511.70	529.70
511.91	534.39
512.12	536.23
512.33	543.61
512.54	547.42
512.75	550.98
512.95	554.50
513.16	557.85
513.37	563.95
513.58	567.34
513.79	566.93
514.00	565.87
514.20	570.25
514.41	573.32
514.62	573.71
514.83	576.37
515.04	580.67
515.25	583.91
515.46	591.29
515.66	595.59
515.87	600.78
516.08	606.07
516.29	612.03
516.50	613.24
516.71	616.89
516.91	620.05
517.12	623.76
517.33	623.87
517.54	625.36
517.75	625.71
517.95	630.55
518.16	630.55
518.37	631.84
518.58	631.82
518.79	635.84
519.00	639.30
519.20	643.43
519.41	642.71
519.62	648.28
519.83	651.96
520.04	651.76
520.24	650.17
520.45	656.41
520.66	661.07
520.87	669.18
521.08	671.72
521.28	674.23
521.49	677.08
521.70	685.70
521.91	688.29
522.12	692.31
522.32	694.97
522.53	698.82
522.74	700.96
522.95	702.03
523.16	704.80
523.36	705.02
523.57	705.69
523.78	707.07
523.99	708.78
524.20	709.51
524.40	712.45
524.61	716.21
524.82	717.46
525.03	721.26
525.23	725.19
525.44	724.81
525.65	729.60
525.86	733.73
526.06	738.83
526.27	739.34
526.48	743.13
526.69	740.99
526.90	746.93
527.10	753.71
527.31	753.69
527.52	757.43
527.73	760.17
527.93	763.33
528.14	764.30
528.35	761.49
528.56	766.05
528.76	769.59
528.97	773.26
529.18	771.51
529.39	771.73
529.59	777.56
529.80	780.39
530.01	780.15
530.22	782.12
530.42	786.18
530.63	790.22
530.84	790.55
531.05	790.70
531.25	792.92
531.46	795.11
531.67	796.19
531.88	793.01
532.08	788.97
532.29	792.58
532.50	791.24
532.70	793.44
532.91	797.07
533.12	797.26
533.33	796.25
533.53	795.86
533.74	796.29
533.95	800.16
534.15	802.73
534.36	807.27
534.57	809.19
534.78	809.51
534.98	809.06
535.19	807.31
535.40	807.77
535.60	810.92
535.81	813.75
536.02	815.91
536.23	812.78
536.43	818.68
536.64	821.51
536.85	824.40
537.05	830.88
537.26	834.36
537.47	836.15
537.67	837.62
537.88	838.79
538.09	840.62
538.30	842.93
538.50	843.76
538.71	840.30
538.92	840.30
539.12	840.30
539.33	838.62
539.54	836.74
539.74	838.55
539.95	837.21
540.16	836.74
540.36	836.30
540.57	835.09
540.78	836.19
540.98	835.12
541.19	836.39
541.40	834.66
541.60	836.41
541.81	835.35
542.02	835.03
542.22	836.39
542.43	837.66
542.64	838.70
542.84	838.46
543.05	842.40
543.26	843.32
543.46	840.56
543.67	839.82
543.88	834.10
544.08	834.86
544.29	831.72
544.50	830.71
544.70	829.87
544.91	831.27
545.12	833.08
545.32	827.21
545.53	829.48
545.74	828.72
545.94	825.61
546.15	826.58
546.35	823.08
546.56	823.21
546.77	822.91
546.97	818.18
547.18	812.04
547.39	805.35
547.59	803.77
547.80	795.60
548.01	793.03
548.21	792.43
548.42	792.56
548.62	791.06
548.83	790.81
549.04	786.94
549.24	787.54
549.45	784.54
549.65	784.95
549.86	780.83
550.07	781.88
550.27	778.84
550.48	774.19
550.69	769.59
550.89	768.23
551.10	761.36
551.30	759.33
551.51	756.54
551.72	754.27
551.92	750.67
552.13	748.42
552.33	744.64
552.54	740.17
552.75	738.55
552.95	732.20
553.16	729.39
553.36	726.14
553.57	721.96
553.78	716.70
553.98	712.79
554.19	708.37
554.39	703.79
554.60	699.64
554.80	693.83
555.01	690.43
555.22	688.64
555.42	681.47
555.63	677.43
555.83	675.81
556.04	674.47
556.25	671.16
556.45	664.34
556.66	664.92
556.86	655.20
557.07	652.58
557.27	647.49
557.48	642.19
557.68	639.23
557.89	634.14
558.10	631.04
558.30	624.98
558.51	619.34
558.71	615.77
558.92	609.23
559.12	606.65
559.33	604.19
559.54	598.66
559.74	597.43
559.95	592.51
560.15	589.59
560.36	584.12
560.56	582.46
560.77	579.69
560.97	577.84
561.18	572.89
561.38	570.66
561.59	567.62
561.79	565.61
562.00	559.64
562.21	556.99
562.41	553.31
562.62	547.74
562.82	538.63
563.03	531.80
563.23	525.34
563.44	518.66
563.64	514.54
563.85	509.63
564.05	506.24
564.26	500.90
564.46	493.24
564.67	493.90
564.87	488.20
565.08	482.67
565.28	479.06
565.49	477.44
565.69	475.80
565.90	472.58
566.10	466.12
566.31	461.46
566.51	460.53
566.72	461.67
566.92	454.43
567.13	452.41
567.33	450.26
567.54	447.98
567.74	444.80
567.95	442.31
568.15	439.05
568.36	435.03
568.56	428.88
568.77	420.37
568.97	414.94
569.18	411.14
569.38	407.73
569.59	404.72
569.79	399.84
570.00	395.43
570.20	390.53
570.41	384.46
570.61	383.90
570.82	381.96
571.02	378.91
571.23	373.25
571.43	368.73
571.64	364.04
571.84	358.79
572.05	354.80
572.25	353.00
572.45	348.32
572.66	346.65
572.86	344.36
573.07	342.16
573.27	339.65
573.48	336.78
573.68	333.33
573.89	330.93
574.09	332.05
574.30	330.99
574.50	325.50
574.70	323.93
574.91	323.91
575.11	318.83
575.32	311.85
575.52	310.04
575.73	307.31
575.93	304.63
576.14	299.34
576.34	299.25
576.54	296.34
576.75	293.44
576.95	288.13
577.16	284.43
577.36	283.48
577.57	284.70
577.77	281.43
577.97	281.22
578.18	278.43
578.38	279.49
578.59	273.03
578.79	271.04
579.00	271.90
579.20	273.59
579.40	272.55
579.61	269.36
579.81	267.28
580.02	265.53
580.22	265.10
580.42	264.56
580.63	260.43
580.83	257.30
581.04	254.41
581.24	250.97
581.45	247.60
581.65	243.65
581.85	241.34
582.06	235.42
582.26	232.74
582.47	226.47
582.67	222.26
582.87	220.88
583.08	218.57
583.28	218.59
583.48	217.16
583.69	213.01
583.89	210.74
584.10	208.32
584.30	204.98
584.50	202.95
584.71	203.16
584.91	202.75
585.12	203.68
585.32	203.92
585.52	200.92
585.73	199.58
585.93	200.74
586.13	196.96
586.34	196.12
586.54	197.85
586.75	195.28
586.95	193.57
587.15	192.27
587.36	189.42
587.56	187.89
587.76	186.42
587.97	182.70
588.17	178.40
588.37	177.58
588.58	178.43
588.78	176.55
588.98	174.95
589.19	176.09
589.39	174.28
589.60	169.94
589.80	170.43
590.00	169.94
590.21	168.25
590.41	169.40
590.61	171.40
590.82	166.28
591.02	167.95
591.22	168.73
591.43	165.25
591.63	164.23
591.83	165.01
592.04	162.18
592.24	158.72
592.44	156.74
592.65	153.37
592.85	150.06
593.05	150.30
593.26	144.90
593.46	145.33
593.66	140.53
593.86	139.43
594.07	138.59
594.27	139.73
594.47	153.63
594.68	155.05
594.88	151.74
595.08	153.15
595.29	151.03
595.49	153.15
595.69	150.38
595.90	156.97
596.10	154.75
596.30	153.41
596.50	149.73
596.71	133.75
596.91	132.48
597.11	135.18
597.32	134.46
597.52	132.39
597.72	132.32
597.93	131.37
598.13	124.87
598.33	127.23
598.53	122.41
598.74	122.86
598.94	125.47
599.14	124.03
599.35	124.22
599.55	123.08
599.75	126.04
599.95	124.74
600.16	126.68
600.36	127.98
600.56	125.63
600.76	128.22
600.97	129.60
601.17	126.92
601.37	127.66
601.58	126.06
601.78	122.75
601.98	124.91
602.18	123.88
602.39	123.40
602.59	124.03
602.79	123.29
602.99	122.99
603.20	116.96
603.40	118.32
603.60	115.17
603.80	115.47
604.01	119.43
604.21	113.33
604.41	115.11
604.61	115.95
604.82	111.93
605.02	112.19
605.22	113.36
605.42	113.83
605.62	112.15
605.83	111.95
606.03	111.37
606.23	109.19
606.43	111.35
606.64	105.53
606.84	106.31
607.04	107.74
607.24	108.00
607.45	107.89
607.65	110.61
607.85	110.46
608.05	112.55
608.25	115.65
608.46	113.07
608.66	113.31
608.86	122.10
609.06	117.83
609.26	121.02
609.47	121.26
609.67	123.51
609.87	122.79
610.07	122.49
610.28	123.59
610.48	121.61
610.68	126.17
610.88	124.80
611.08	119.15
611.29	117.33
611.49	111.17
611.69	109.66
611.89	108.41
612.09	105.99
612.29	106.07
612.50	102.12
612.70	104.22
612.90	100.83
613.10	101.00
613.30	102.64
613.51	105.47
613.71	108.47
613.91	106.36
614.11	103.18
614.31	104.07
614.51	105.19
614.72	107.76
614.92	107.09
615.12	104.07
615.32	104.54
615.52	102.36
615.72	104.60
615.93	103.18
616.13	104.48
616.33	105.34
616.53	104.13
616.73	102.73
616.93	101.37
617.14	98.34
617.34	101.82
617.54	101.41
617.74	101.52
617.94	98.84
618.14	103.63
618.34	103.68
618.55	103.50
618.75	105.12
618.95	104.45
619.15	101.73
619.35	102.90
619.55	101.11
619.75	104.99
619.96	103.96
620.16	103.25
620.36	100.15
620.56	101.50
620.76	99.94
620.96	102.81
621.16	101.77
621.36	106.61
621.57	105.73
621.77	108.17
621.97	102.03
622.17	102.90
622.37	105.79
622.57	108.93
622.77	108.24
622.97	109.12
623.18	106.29
623.38	106.49
623.58	103.89
623.78	105.14
623.98	104.60
624.18	108.78
624.38	112.25
624.58	108.91
624.78	107.20
624.98	105.71
625.19	105.49
625.39	105.62
625.59	108.24
625.79	110.11
625.99	109.49
626.19	108.24
626.39	104.47
626.59	99.48
626.79	101.24
626.99	99.89
627.19	101.67
627.40	102.96
627.60	102.08
627.80	99.59
628.00	98.21
628.20	97.67
628.40	100.63
628.60	99.77
628.80	103.22
629.00	103.39
629.20	101.67
629.40	102.12
629.60	101.06
629.80	101.19
630.00	105.62
630.20	105.49
630.41	107.15
630.61	105.68
630.81	107.22
631.01	110.91
631.21	113.09
631.41	115.75
631.61	116.08
631.81	114.44
632.01	117.61
632.21	114.24
632.41	114.74
632.61	113.87
632.81	111.95
633.01	114.48
633.21	107.72
633.41	106.79
633.61	104.61
633.81	103.20
634.01	104.60
634.21	100.63
634.41	102.53
634.61	100.78
634.81	101.52
635.01	104.30
635.22	103.65
635.42	104.60
635.62	103.16
635.82	106.79
636.02	110.18
636.22	112.08
636.42	115.92
636.62	112.56
636.82	114.70
637.02	113.18
637.22	112.75
637.42	112.95
637.62	115.47
637.82	112.97
638.02	112.40
638.22	108.17
638.42	108.88
638.62	107.67
638.82	109.94
639.02	109.98
639.22	110.39
639.42	108.82
639.62	108.52
639.82	104.11
640.02	106.18
640.22	102.58
640.42	102.71
640.62	103.61
640.82	103.66
641.02	102.83
641.22	103.68
641.42	103.40
641.61	106.59
641.81	108.93
642.01	111.37
642.21	110.68
642.41	108.69
642.61	112.27
642.81	110.91
643.01	111.63
643.21	111.67
643.41	110.59
643.61	111.93
643.81	109.64
644.01	102.88
644.21	103.44
644.41	100.87
644.61	105.77
644.81	101.58
645.01	101.47
645.21	99.81
645.41	99.46
645.61	99.55
645.81	99.05
646.01	96.05
646.21	101.62
646.40	101.56
646.60	104.60
646.80	104.67
647.00	107.22
647.20	103.74
647.40	104.91
647.60	104.24
647.80	103.11
648.00	103.22
648.20	107.41
648.40	105.21
648.60	103.83
648.80	103.40
649.00	103.55
649.20	105.47
649.39	109.31
649.59	107.82
649.79	110.76
649.99	110.81
650.19	110.39
650.39	111.02
650.59	109.27
650.79	110.57
650.99	109.77
651.19	107.31
651.39	105.49
651.58	104.26
651.78	103.14
651.98	101.82
652.18	101.88
652.38	102.83
652.58	101.47
652.78	102.71
652.98	101.91
653.18	102.58
653.38	103.07
653.57	103.87
653.77	105.21
653.97	103.79
654.17	101.95
654.37	103.11
654.57	102.49
654.77	99.89
654.97	100.35
655.16	101.50
655.36	104.48
655.56	103.11
655.76	100.52
655.96	101.15
656.16	103.39
656.36	105.43
656.56	105.99
656.75	107.44
656.95	106.51
657.15	107.03
657.35	104.58
657.55	101.45
657.75	100.89
657.95	101.32
658.14	99.55
658.34	99.55
658.54	99.83
658.74	98.67
658.94	95.99
659.14	98.99
659.34	100.52
659.53	101.47
659.73	100.96
659.93	103.12
660.13	103.68
660.33	104.35
660.53	106.44
660.72	101.08
660.92	99.46
661.12	99.05
661.32	99.70
661.52	98.13
661.72	98.75
661.91	101.28
662.11	104.45
662.31	104.87
662.51	105.54
662.71	102.66
662.90	107.07
663.10	110.55
663.30	110.66
663.50	109.75
663.70	111.60
663.90	111.43
664.09	111.06
664.29	107.61
664.49	110.35
664.69	109.31
664.89	107.69
665.08	108.41
665.28	106.89
665.48	107.39
665.68	109.25
665.88	108.75
666.07	108.45
666.27	105.99
666.47	106.05
666.67	103.40
666.87	105.43
667.06	106.76
667.26	104.99
667.46	103.65
667.66	106.76
667.85	102.06
668.05	101.11
668.25	102.79
668.45	104.48
668.65	107.11
668.84	107.50
669.04	104.74
669.24	106.90
669.44	105.62
669.63	107.18
669.83	105.86
670.03	107.20
670.23	106.03
670.42	104.71
670.62	101.41
670.82	98.53
671.02	97.56
671.22	99.70
671.41	97.89
671.61	98.95
671.81	99.83
672.01	100.09
672.20	100.31
672.40	99.20
672.60	100.46
672.80	104.60
672.99	108.65
673.19	107.97
673.39	106.89
673.58	108.65
673.78	109.62
673.98	108.11
674.18	109.51
674.37	109.81
674.57	110.46
674.77	109.86
674.97	104.32
675.16	100.33
675.36	99.72
675.56	97.13
675.75	95.36
675.95	94.52
676.15	99.68
676.35	98.58
676.54	98.28
676.74	98.88
676.94	96.22
677.13	100.78
677.33	100.37
677.53	100.26
677.73	100.89
677.92	102.44
678.12	103.42
678.32	100.42
678.51	98.43
678.71	100.63
678.91	100.70
679.11	104.17
679.30	105.10
679.50	107.05
679.70	108.30
679.89	108.54
680.09	107.29
680.29	106.18
680.48	104.41
680.68	103.70
680.88	102.79
681.07	101.77
681.27	100.54
681.47	99.20
681.66	97.93
681.86	98.77
682.06	99.16
682.25	101.52
682.45	100.82
682.65	103.42
682.84	103.55
683.04	101.56
683.24	102.44
683.43	104.19
683.63	101.97
683.83	102.16
684.02	101.39
684.22	101.73
684.42	99.23
684.61	100.11
684.81	96.83
685.01	96.38
685.20	96.98
685.40	97.13
685.60	95.86
685.79	98.04
685.99	96.74
686.19	97.69
686.38	99.72
686.58	101.95
686.77	104.11
686.97	106.35
687.17	103.72
687.36	102.83
687.56	101.04
687.76	97.43
687.95	96.07
688.15	98.53
688.34	96.14
688.54	94.28
688.74	90.48
688.93	89.14
689.13	86.41
689.33	87.49
689.52	88.70
689.72	90.97
689.91	92.40
690.11	88.96
690.31	90.28
690.50	92.05
690.70	92.68
690.89	95.57
691.09	94.32
691.29	95.47
691.48	99.05
691.68	101.04
691.87	99.55
692.07	99.83
692.27	103.42
692.46	99.61
692.66	98.79
692.85	95.40
693.05	95.19
693.25	96.14
693.44	95.10
693.64	94.17
693.83	90.67
694.03	88.96
694.22	90.37
694.42	91.30
694.62	92.40
694.81	95.53
695.01	98.79
695.20	97.33
695.40	97.54
695.59	97.58
695.79	95.17
695.99	95.68
696.18	94.56
696.38	93.52
696.57	94.97
696.77	95.49
696.96	90.32
697.16	91.15
697.36	89.63
697.55	88.14
697.75	89.33
697.94	88.04
698.14	89.50
698.33	90.67
698.53	91.77
698.72	92.08
698.92	91.71
699.11	96.68
699.31	95.23
699.51	99.72
699.70	98.90
699.90	97.74
700.09	100.07
700.29	97.26
700.48	98.40
700.68	98.36
700.87	98.25
701.07	95.60
701.26	92.31
701.46	93.95
701.65	91.19
701.85	93.82
702.04	92.62
702.24	91.71
702.43	92.70
702.63	96.03
702.82	94.32
703.02	90.67
703.21	93.03
703.41	91.21
703.60	90.30
703.80	90.80
703.99	87.71
704.19	87.00
704.38	87.11
704.58	89.48
704.77	83.15
704.97	84.56
705.16	88.81
705.36	85.87
705.55	88.34
705.75	86.46
705.94	85.62
706.14	93.42
706.33	93.24
706.53	94.43
706.72	92.59
706.92	96.40
707.11	96.40
707.31	91.71
707.50	94.77
707.70	92.92
707.89	94.08
708.09	96.44
708.28	90.74
708.48	91.58
708.67	91.62
708.86	94.09
709.06	91.79
709.25	91.34
709.45	93.67
709.64	91.77
709.84	90.32
710.03	90.26
710.23	86.20
710.42	86.16
710.62	82.70
710.81	81.66
711.00	77.47
711.20	79.57
711.39	83.33
711.59	82.87
711.78	83.39
711.98	88.06
712.17	88.81
712.37	89.38
712.56	88.44
712.75	94.08
712.95	94.39
713.14	98.82
713.34	96.94
713.53	91.84
713.73	92.20
713.92	92.53
714.11	89.53
714.31	87.17
714.50	88.64
714.70	90.74
714.89	91.67
715.08	88.30
715.28	86.31
715.47	87.67
715.67	88.23
715.86	84.80
716.06	83.95
716.25	83.33
716.44	81.06
716.64	79.85
716.83	77.51
717.03	74.56
717.22	81.60
717.41	80.95
717.61	80.11
717.80	79.65
717.99	83.61
718.19	82.68
718.38	83.67
718.58	86.98
718.77	85.70
718.96	85.61
719.16	84.79
719.35	79.07
719.55	78.46
719.74	77.56
719.93	76.87
720.13	73.88
720.32	73.80
720.51	73.58
720.71	70.19
720.90	72.83
721.10	72.22
721.29	72.78
721.48	76.35
721.68	78.75
721.87	81.70
722.06	83.74
722.26	85.12
722.45	87.80
722.64	85.21
722.84	88.60
723.03	85.72
723.22	88.23
723.42	87.00
723.61	82.59
723.80	80.67
724.00	78.57
724.19	79.26
724.38	79.18
724.58	78.10
724.77	81.86
724.96	81.01
725.16	83.37
725.35	83.04
725.54	84.30
725.74	86.11
725.93	85.57
726.12	84.49
726.32	82.91
726.51	84.75
726.70	86.00
726.90	84.17
727.09	85.38
727.28	84.93
727.48	81.99
727.67	84.73
727.86	86.33
728.06	87.17
728.25	87.09
728.44	88.58
728.64	85.75
728.83	83.69
729.02	84.38
729.21	82.01
729.41	83.05
729.60	84.10
729.79	83.22
729.99	79.74
730.18	75.89
730.37	78.44
730.56	76.20
730.76	78.21
730.95	77.15
731.14	73.67
731.34	72.44
731.53	72.87
731.72	72.52
731.91	71.27
732.11	71.08
732.30	71.31
732.49	69.28
732.69	72.87
732.88	71.38
733.07	74.51
733.26	74.02
733.46	73.56
733.65	71.60
733.84	70.23
734.03	68.01
734.23	70.79
734.42	69.87
734.61	67.69
734.80	65.46
735.00	63.17
735.19	60.95
735.38	65.24
735.57	67.21
735.77	65.03
735.96	67.53
736.15	66.15
736.34	65.91
736.54	69.61
736.73	72.05
736.92	67.77
737.11	69.30
737.31	68.59
737.50	66.69
737.69	67.40
737.88	68.22
738.07	64.75
738.27	68.83
738.46	68.46
738.65	65.70
738.84	63.73
739.04	63.77
739.23	62.59
739.42	60.21
739.61	62.44
739.80	62.44
740.00	63.97
740.19	65.50
740.38	62.54
740.57	61.01
740.76	64.12
740.96	65.37
741.15	66.91
741.34	68.14
741.53	69.84
741.72	69.09
741.92	67.34
742.11	65.40
742.30	64.90
742.49	64.31
742.68	63.19
742.88	60.86
743.07	58.94
743.26	60.90
743.45	62.11
743.64	64.36
743.84	63.36
744.03	62.33
744.22	63.26
744.41	61.68
744.60	60.55
744.79	61.10
744.99	63.51
745.18	64.83
745.37	62.15
745.56	63.26
745.75	60.88
745.94	61.98
746.14	63.69
746.33	64.25
746.52	66.47
746.71	67.08
746.90	67.56
747.09	65.68
747.28	68.20
747.48	70.28
747.67	69.05
747.86	67.14
748.05	65.01
748.24	61.29
748.43	60.58
748.62	60.43
748.82	59.26
749.01	60.94
749.20	59.93
749.39	56.51
749.58	54.94
749.77	52.58
749.96	52.87
750.16	51.18
750.35	52.89
750.54	50.19
750.73	51.03
750.92	54.22
751.11	51.48
751.30	49.82
751.49	50.34
751.68	49.37
751.88	51.53
752.07	53.12
752.26	53.79
752.45	52.60
752.64	53.34
752.83	53.38
753.02	50.88
753.21	49.64
753.40	50.03
753.60	50.29
753.79	50.90
753.98	47.94
754.17	50.68
754.36	54.92
754.55	56.90
754.74	58.05
754.93	58.22
755.12	60.73
755.31	60.86
755.50	61.85
755.70	61.74
755.89	64.34
756.08	62.61
756.27	59.07
756.46	56.49
756.65	54.89
756.84	54.46
757.03	53.08
757.22	52.47
757.41	53.99
757.60	55.20
757.79	55.87
757.98	53.77
758.17	56.73
758.36	57.29
758.56	53.55
758.75	55.80
758.94	55.76
759.13	53.34
759.32	51.68
759.51	53.12
759.70	49.69
759.89	49.50
760.08	52.54
760.27	49.82
760.46	47.90
760.65	50.36
760.84	49.43
761.03	50.57
761.22	54.77
761.41	53.19
761.60	52.09
761.79	54.31
761.98	54.92
762.17	53.01
762.36	55.52
762.55	58.05
762.74	57.42
762.93	56.82
763.12	54.29
763.31	53.81
763.50	56.58
763.69	58.26
763.88	57.01
764.07	58.07
764.26	52.67
764.45	48.83
764.64	47.21
764.83	47.44
765.02	47.61
765.21	49.41
765.40	48.28
765.59	46.28
765.78	43.83
765.97	44.37
766.16	41.41
766.35	44.22
766.54	46.08
766.73	44.72
766.92	45.02
767.11	44.65
767.30	44.09
767.49	40.55
767.68	42.58
767.87	43.99
768.06	45.04
768.25	45.87
768.44	44.39
768.63	49.34
768.82	53.10
769.01	55.13
769.20	56.24
769.39	56.62
769.58	59.41
769.77	59.02
769.96	58.68
770.15	57.68
770.34	55.59
770.53	58.53
770.72	54.98
770.91	52.41
771.10	48.39
771.29	45.67
771.47	47.14
771.66	48.97
771.85	49.69
772.04	46.60
772.23	45.84
772.42	46.94
772.61	44.98
772.80	42.93
772.99	42.19
773.18	43.23
773.37	46.69
773.56	42.78
773.75	42.06
773.94	39.69
774.13	39.49
774.31	43.38
774.50	42.88
774.69	40.83
774.88	43.19
775.07	45.35
775.26	46.64
775.45	47.14
775.64	49.69
775.83	50.79
776.02	52.35
776.21	52.28
776.40	51.65
776.58	50.92
776.77	55.11
776.96	55.03
777.15	54.81
777.34	53.02
777.53	49.24
777.72	47.53
777.91	44.83
778.10	42.32
778.28	41.24
778.47	37.57
778.66	40.14
778.85	41.63
779.04	39.75
779.23	38.30
779.42	38.04
779.61	39.58
779.79	41.67
779.98	44.03
780.17	43.90
780.36	43.83
780.55	45.58
780.74	43.40
780.93	39.43
781.12	41.63
781.30	41.56
781.49	41.59
781.68	40.03
781.87	38.73
782.06	33.12
782.25	37.76
782.44	41.69
782.62	41.46
782.81	40.48
783.00	40.51
783.19	38.11
783.38	40.75
783.57	40.61
783.75	38.84
783.94	37.66
784.13	38.67
784.32	33.81
784.51	34.87
784.70	33.23
784.88	35.88
785.07	37.25
785.26	38.50
785.45	32.94
785.64	34.44
785.83	34.18
786.01	34.33
786.20	34.69
786.39	36.06
786.58	35.43
786.77	36.30
786.95	33.47
787.14	33.44
787.33	31.74
787.52	33.94
787.71	33.96
787.90	35.67
788.08	36.17
788.27	36.58
788.46	37.40
788.65	36.40
788.84	32.97
789.02	31.71
789.21	32.25
789.40	33.47
789.59	36.06
789.77	33.79
789.96	33.23
790.15	31.82
790.34	32.75
790.53	30.33
790.71	29.16
790.90	30.51
791.09	34.44
791.28	31.67
791.46	33.16
791.65	31.93
791.84	33.46
792.03	32.56
792.22	34.54
792.40	36.90
792.59	39.84
792.78	41.28
792.97	44.37
793.15	41.65
793.34	41.78
793.53	39.73
793.72	38.59
793.90	36.98
794.09	40.34
794.28	39.00
794.47	37.07
794.65	34.65
794.84	33.81
795.03	30.20
795.22	31.28
795.40	32.86
795.59	32.92
795.78	35.11
795.97	37.81
796.15	37.20
796.34	36.36
796.53	37.25
796.71	36.42
796.90	35.32
797.09	38.82
797.28	36.04
797.46	38.69
797.65	38.61
797.84	37.01
798.02	35.78
798.21	36.81
798.40	36.51
798.59	35.47
798.77	39.75
798.96	39.06
799.15	36.68
799.33	35.88
799.52	33.08
799.71	30.07
799.90	31.13
800.08	28.65
800.27	25.10
800.46	28.39
800.64	27.33
800.83	23.72
801.02	24.97
801.20	26.27
801.39	30.59
801.58	33.01
801.76	35.37
801.95	33.49
802.14	33.90
802.32	34.52
802.51	33.27
802.70	33.25
802.88	32.69
803.07	32.06
803.26	30.33
803.44	28.24
803.63	24.28
803.82	25.66
804.00	25.75
804.19	25.73
804.38	29.68
804.56	29.23
804.75	31.39
804.94	33.36
805.12	33.21
805.31	36.14
805.50	38.07
805.68	35.49
805.87	37.01
806.06	36.86
806.24	39.45
806.43	36.84
806.62	37.09
806.80	35.82
806.99	35.15
807.17	37.11
807.36	35.93
807.55	34.16
807.73	39.12
807.92	33.81
808.11	35.50
808.29	32.56
808.48	30.25
808.66	32.21
808.85	31.37
809.04	30.81
809.22	31.26
809.41	29.27
809.59	26.57
809.78	24.52
809.97	28.11
810.15	26.87
810.34	28.62
810.53	29.99
810.71	27.95
810.90	27.46
811.08	27.41
811.27	23.25
811.45	25.56
811.64	28.32
811.83	29.06
812.01	26.05
812.20	26.42
812.38	27.05
812.57	28.43
812.76	27.26
812.94	25.86
813.13	27.11
813.31	30.63
813.50	28.91
813.68	28.50
813.87	28.04
814.06	30.16
814.24	28.13
814.43	29.90
814.61	29.01
814.80	28.93
814.98	29.51
815.17	29.29
815.36	26.88
815.54	27.11
815.73	27.20
815.91	28.88
816.10	28.58
816.28	28.76
816.47	24.87
816.65	25.53
816.84	26.27
817.03	26.66
817.21	27.72
817.40	26.38
817.58	23.87
817.77	19.49
817.95	15.15
818.14	17.20
818.32	18.62
818.51	19.72
818.69	17.31
818.88	16.22
819.06	16.40
819.25	11.41
819.43	12.10
819.62	12.90
819.80	14.97
819.99	17.67
820.18	14.56
820.36	12.60
820.55	13.87
820.73	15.45
820.92	13.48
821.10	12.33
821.29	13.31
821.47	15.10
821.66	16.53
821.84	19.62
822.03	18.93
822.21	21.71
822.40	23.37
822.58	21.45
822.77	21.41
822.95	22.70
823.14	23.81
823.32	26.12
823.50	24.07
823.69	25.77
823.87	24.97
824.06	23.48
824.24	21.99
824.43	21.39
824.61	23.87
824.80	22.27
824.98	22.27
825.17	23.05
825.35	24.69
825.54	23.63
825.72	20.65
825.91	20.05
826.09	22.62
826.28	22.17
826.46	19.20
826.64	16.77
826.83	18.10
827.01	20.48
827.20	16.74
827.38	15.88
827.57	15.43
827.75	15.77
827.94	17.05
828.12	16.25
828.31	14.35
828.49	16.05
828.67	15.68
828.86	14.99
829.04	13.16
829.23	17.87
829.41	17.74
829.60	20.18
829.78	25.04
829.96	23.81
830.15	24.18
830.33	23.74
830.52	25.28
830.70	24.13
830.88	24.63
831.07	26.72
831.25	24.78
831.44	22.04
831.62	20.98
831.81	15.53
831.99	15.84
832.17	18.54
832.36	19.47
832.54	19.98
832.73	19.88
832.91	20.44
833.09	18.19
833.28	17.31
833.46	20.29
833.65	21.50
833.83	21.22
834.01	18.80
834.20	15.45
834.38	17.93
834.56	16.25
834.75	19.49
834.93	18.23
835.12	18.38
835.30	18.23
835.48	14.95
835.67	15.81
835.85	16.63
836.03	19.88
836.22	19.38
836.40	17.48
836.59	15.84
836.77	12.46
836.95	12.36
837.14	13.65
837.32	15.73
837.50	17.09
837.69	14.75
837.87	14.45
838.05	11.11
838.24	9.50
838.42	10.78
838.60	11.82
838.79	12.79
838.97	12.18
839.15	10.04
839.34	6.37
839.52	7.86
839.70	7.63
839.89	12.12
840.07	12.25
840.25	11.06
840.44	9.09
840.62	10.35
840.80	13.24
840.99	13.70
841.17	14.47
841.35	15.23
841.54	13.05
841.72	11.64
841.90	8.23
842.09	9.05
842.27	11.30
842.45	13.72
842.64	14.80
842.82	9.89
843.00	11.43
843.19	11.04
843.37	11.54
843.55	11.60
843.73	11.95
843.92	9.16
844.10	10.02
844.28	10.28
844.47	7.97
844.65	5.51
844.83	7.52
845.01	7.73
845.20	7.09
845.38	5.92
845.56	3.13
845.75	5.59
845.93	8.88
846.11	8.25
846.29	9.63
846.48	13.70
846.66	14.58
846.84	13.87
847.02	14.17
847.21	14.58
847.39	20.54
847.57	21.97
847.76	21.39
847.94	19.98
848.12	19.92
848.30	19.77
848.49	16.92
848.67	19.27
848.85	19.44
849.03	14.71
849.22	13.46
849.40	7.47
849.58	7.11
849.76	8.77
849.95	6.72
850.13	5.88
850.31	6.52
850.49	8.69
850.67	7.82
850.86	9.20
851.04	11.41
851.22	14.30
851.40	16.37
851.59	24.02
851.77	23.63
851.95	26.12
852.13	25.13
852.31	24.59
852.50	23.01
852.68	21.26
852.86	19.20
853.04	17.82
853.23	15.79
853.41	14.80
853.59	17.17
853.77	14.80
853.95	14.43
854.14	17.71
854.32	16.64
854.50	15.30
854.68	15.17
854.86	16.44
855.04	18.66
855.23	19.08
855.41	20.14
855.59	11.71
855.77	13.80
855.95	14.24
856.14	11.95
856.32	10.41
856.50	9.81
856.68	11.49
856.86	11.23
857.04	10.05
857.23	8.40
857.41	8.27
857.59	8.99
857.77	7.88
857.95	7.58
858.13	9.70
858.32	8.97
858.50	10.04
858.68	7.76
858.86	7.86
859.04	7.48
859.22	8.49
859.41	7.80
859.59	10.93
859.77	10.18
859.95	9.44
860.13	11.13
860.31	14.09
860.49	16.22
860.68	18.30
860.86	18.41
861.04	18.95
861.22	18.45
861.40	19.79
861.58	15.60
861.76	15.60
861.94	16.68
862.13	13.81
862.31	13.00
862.49	10.87
862.67	9.59
862.85	9.53
863.03	11.39
863.21	11.26
863.39	9.33
863.57	8.17
863.76	11.90
863.94	14.69
864.12	15.92
864.30	17.87
864.48	17.65
864.66	19.20
864.84	17.65
865.02	16.59
865.20	17.17
865.38	18.62
865.57	19.75
865.75	17.11
865.93	14.48
866.11	11.06
866.29	10.30
866.47	10.78
866.65	9.05
866.83	9.85
867.01	8.25
867.19	7.15
867.37	5.88
867.55	5.47
867.73	5.10
867.92	6.03
868.10	9.76
868.28	8.42
868.46	6.20
868.64	4.84
868.82	4.49
869.00	5.66
869.18	6.37
869.36	5.19
869.54	6.37
869.72	7.09
869.90	3.87
870.08	2.18
870.26	-0.09
870.44	-1.08
870.62	-0.35
870.80	0.65
870.98	-0.22
871.16	0.06
871.34	2.92
871.53	0.60
871.71	-3.35
871.89	-2.79
872.07	0.45
872.25	4.71
872.43	5.88
872.61	4.82
872.79	7.91
872.97	8.10
873.15	6.55
873.33	5.21
873.51	7.19
873.69	11.58
873.87	12.42
874.05	12.38
874.23	10.15
874.41	11.54
874.59	15.42
874.77	9.98
874.95	8.73
875.13	9.85
875.31	10.69
875.49	10.17
875.67	7.35
875.85	6.31
876.03	3.65
876.21	1.99
876.39	2.40
876.57	4.32
876.75	4.13
876.93	3.98
877.11	4.02
877.29	3.30
877.47	6.29
877.65	7.86
877.82	10.43
878.00	13.35
878.18	16.59
878.36	17.09
878.54	12.42
878.72	14.06
878.90	17.71
879.08	17.72
879.26	14.84
879.44	11.80
879.62	14.58
879.80	13.01
879.98	10.46
880.16	10.80
880.34	8.73
880.52	7.61
880.70	5.44
880.88	5.36
881.06	7.17
881.24	10.54
881.42	12.47
881.59	9.27
881.77	8.36
881.95	7.32
882.13	1.99
882.31	4.58
882.49	7.54
882.67	11.21
882.85	9.20
883.03	11.19
883.21	10.56
883.39	10.57
883.57	11.58
883.75	13.80
883.92	13.07
884.10	16.48
884.28	16.38
884.46	14.56
884.64	13.24
884.82	19.34
885.00	19.33
885.18	19.34
885.36	15.73
885.54	13.93
885.71	14.26
885.89	16.68
886.07	19.06
886.25	21.54
886.43	21.86
886.61	17.93
886.79	12.96
886.97	10.09
887.15	10.24
887.32	14.15
887.50	14.82
887.68	14.04
887.86	12.29
888.04	10.56
888.22	6.96
888.40	5.66
888.57	10.69
888.75	10.50
888.93	11.32
889.11	11.25
889.29	7.50
889.47	9.23
889.65	7.88
889.82	8.51
890.00	8.34
890.18	6.68
890.36	8.08
890.54	7.61
890.72	6.44
890.90	7.34
891.07	6.78
891.25	10.46
891.43	9.38
891.61	11.73
891.79	13.31
891.97	11.82
892.14	12.03
892.32	12.79
892.50	10.71
892.68	10.33
892.86	7.35
893.03	9.31
893.21	8.90
893.39	5.83
893.57	3.59
893.75	1.75
893.93	1.14
894.10	1.82
894.28	1.73
894.46	4.17
894.64	2.53
894.82	6.87
894.99	6.11
895.17	3.33
895.35	7.15
895.53	8.08
895.71	6.85
895.88	7.47
896.06	5.31
896.24	6.48
896.42	5.66
896.59	7.88
896.77	5.44
896.95	4.65
897.13	4.82
897.31	4.51
897.48	5.32
897.66	6.96
897.84	6.26
898.02	8.15
898.19	4.97
898.37	3.54
898.55	6.98
898.73	7.13
898.91	5.68
899.08	6.85
899.26	6.67
899.44	6.65
899.62	7.02
899.79	7.58
899.97	7.93
900.15	10.93
900.33	8.86
900.50	4.23
900.68	2.76
900.86	3.24
901.04	3.65
901.21	5.29
901.39	2.92
901.57	5.62
901.74	6.18
901.92	6.68
902.10	3.84
902.28	5.66
902.45	6.35
902.63	6.20
902.81	8.84
902.99	8.12
903.16	6.37
903.34	6.31
903.52	3.84
903.69	3.30
903.87	1.90
904.05	4.26
904.22	3.78
904.40	4.19
904.58	5.90
904.76	3.76
904.93	3.41
905.11	2.48
905.29	3.17
905.46	2.48
905.64	1.75
905.82	0.97
905.99	-2.09
906.17	0.04
906.35	0.58
906.53	-5.01
906.70	-4.92
906.88	-4.21
907.06	-2.66
907.23	-2.70
907.41	-5.38
907.59	-1.94
907.76	-1.10
907.94	1.90
908.12	2.94
908.29	2.81
908.47	6.37
908.65	3.93
908.82	5.05
909.00	4.26
909.18	3.87
909.35	6.11
909.53	2.81
909.71	2.16
909.88	-0.19
910.06	2.20
910.23	4.80
910.41	5.64
910.59	10.50
910.76	8.68
910.94	11.32
911.12	12.06
911.29	13.48
911.47	16.25
911.65	16.63
911.82	12.79
912.00	9.40
912.17	7.11
912.35	8.77
912.53	7.45
912.70	8.19
912.88	3.56
913.06	4.02
913.23	1.04
913.41	-1.21
913.58	-2.83
913.76	0.34
913.94	3.28
914.11	3.22
914.29	-0.86
914.46	0.15
914.64	1.84
914.82	3.41
914.99	6.57
915.17	10.18
915.34	11.32
915.52	12.98
915.70	16.70
915.87	13.50
916.05	12.46
916.22	16.29
916.40	16.33
916.57	13.55
916.75	13.42
916.93	8.68
917.10	7.24
917.28	4.67
917.45	5.19
917.63	2.25
917.80	-1.62
917.98	-2.29
918.16	-4.02
918.33	-7.76
918.51	-6.33
918.68	-6.01
918.86	-3.70
919.03	-5.05
919.21	-3.05
919.39	-2.12
919.56	-2.31
919.74	0.61
919.91	0.61
920.09	-0.22
920.26	0.67
920.44	-0.99
920.61	-3.17
920.79	-2.96
920.96	-3.76
921.14	-2.72
921.31	-6.35
921.49	-4.17
921.67	-3.39
921.84	-3.15
922.02	-0.19
922.19	-1.32
922.37	-1.32
922.54	-0.35
922.72	-2.77
922.89	0.80
923.07	-0.09
923.24	3.52
923.42	-0.04
923.59	1.02
923.77	3.98
923.94	1.21
924.12	0.73
924.29	2.51
924.47	2.98
924.64	5.42
924.82	6.98
924.99	6.87
925.17	5.16
925.34	7.93
925.52	7.24
925.69	6.01
925.87	8.23
926.04	12.40
926.22	14.80
926.39	13.72
926.57	15.49
926.74	10.22
926.91	10.11
927.09	8.88
927.26	7.19
927.44	4.90
927.61	4.00
927.79	5.05
927.96	4.52
928.14	-0.82
928.31	3.76
928.49	-0.07
928.66	2.46
928.84	2.53
929.01	3.52
929.18	3.43
929.36	7.89
929.53	10.11
929.71	5.77
929.88	5.44
930.06	7.67
930.23	3.11
930.41	2.07
930.58	3.59
930.75	4.77
930.93	5.99
931.10	5.73
931.28	0.48
931.45	0.67
931.63	1.77
931.80	3.02
931.97	2.38
932.15	3.93
932.32	4.88
932.50	3.28
932.67	3.72
932.84	1.84
933.02	4.80
933.19	7.82
933.37	4.28
933.54	4.28
933.71	3.85
933.89	5.62
934.06	3.22
934.24	6.78
934.41	6.26
934.58	5.36
934.76	7.63
934.93	6.46
935.11	7.71
935.28	8.55
935.45	6.05
935.63	4.75
935.80	3.82
935.98	6.81
936.15	3.98
936.32	2.68
936.50	4.84
936.67	2.22
936.84	3.33
937.02	2.12
937.19	3.15
937.36	6.11
937.54	3.37
937.71	5.94
937.89	5.08
938.06	4.34
938.23	1.69
938.41	-1.66
938.58	1.36
938.75	0.24
938.93	0.91
939.10	-1.32
939.27	0.67
939.45	2.12
939.62	1.06
939.79	1.23
939.97	0.71
940.14	4.60
940.31	4.43
940.49	3.82
940.66	3.39
940.83	2.27
941.01	4.06
941.18	1.36
941.35	1.27
941.53	1.58
941.70	4.10
941.87	5.31
942.05	5.01
942.22	4.13
942.39	2.70
942.57	2.38
942.74	2.14
942.91	1.69
943.08	4.69
943.26	6.70
943.43	4.88
943.60	2.23
943.78	4.36
943.95	3.46
944.12	5.08
944.29	6.33
944.47	5.86
944.64	6.70
944.81	5.25
944.99	0.32
945.16	-4.13
945.33	-7.67
945.50	-5.77
945.68	-7.41
945.85	-8.56
946.02	-9.57
946.20	-9.83
946.37	-8.86
946.54	-7.09
946.71	-4.64
946.89	0.19
947.06	3.76
947.23	8.53
947.40	6.89
947.58	7.82
947.75	8.36
947.92	9.92
948.09	9.07
948.27	7.97
948.44	4.65
948.61	4.47
948.78	0.93
948.96	-0.54
949.13	-3.18
949.30	-2.81
949.47	-5.31
949.65	-4.04
949.82	-3.76
949.99	-3.35
950.16	-4.52
950.33	-5.38
950.51	-7.56
950.68	-4.15
950.85	-2.33
951.02	-0.63
951.20	1.88
951.37	3.80
951.54	1.97
951.71	1.81
951.88	0.95
952.06	3.76
952.23	5.90
952.40	8.36
952.57	7.37
952.74	6.03
952.92	6.59
953.09	4.23
953.26	1.02
953.43	0.71
953.60	-3.67
953.77	-1.17
953.95	-3.28
954.12	-4.88
954.29	-4.88
954.46	-5.31
954.63	-5.08
954.81	-6.67
954.98	-6.48
955.15	-3.37
955.32	-0.19
955.49	2.01
955.66	1.47
955.84	3.76
956.01	4.10
956.18	3.57
956.35	3.00
956.52	4.77
956.69	2.81
956.87	3.24
957.04	3.44
957.21	3.31
957.38	3.41
957.55	4.77
957.72	2.66
957.89	5.19
958.07	2.87
958.24	1.25
958.41	-0.82
958.58	0.45
958.75	-3.24
958.92	-6.07
959.09	-6.42
959.26	-5.25
959.44	-3.91
959.61	-2.68
959.78	-3.31
959.95	-0.73
960.12	-0.43
960.29	-1.36
960.46	-3.82
960.63	-1.34
960.81	-1.49
960.98	-1.12
961.15	0.65
961.32	-1.86
961.49	-1.15
961.66	0.20
961.83	1.84
962.00	2.05
962.17	1.08
962.34	6.26
962.52	7.37
962.69	9.40
962.86	8.02
963.03	3.43
963.20	5.44
963.37	5.49
963.54	4.60
963.71	2.44
963.88	2.79
964.05	4.78
964.22	2.10
964.39	1.32
964.56	-0.09
964.74	-1.86
964.91	1.56
965.08	0.28
965.25	-0.39
965.42	-2.27
965.59	-2.36
965.76	-4.13
965.93	-2.68
966.10	-0.07
966.27	-0.58
966.44	-0.65
966.61	4.00
966.78	1.17
966.95	1.12
967.12	0.95
967.29	1.32
967.46	2.72
967.63	7.63
967.80	4.23
967.97	4.04
968.14	1.28
968.32	1.79
968.49	-0.13
968.66	4.28
968.83	2.12
969.00	1.19
969.17	3.31
969.34	1.69
969.51	-2.53
969.68	-0.30
969.85	-0.88
970.02	2.01
970.19	1.95
970.36	4.75
970.53	2.07
970.70	-0.24
970.87	-0.69
971.04	-0.15
971.21	-1.23
971.38	-1.04
971.55	-0.61
971.72	0.34
971.89	1.49
972.06	3.24
972.23	-0.73
972.40	2.03
972.57	7.07
972.74	9.31
972.91	9.50
973.07	10.93
973.24	9.16
973.41	10.31
973.58	6.57
973.75	4.32
973.92	3.54
974.09	3.89
974.26	4.24
974.43	1.56
974.60	2.48
974.77	-1.77
974.94	0.13
975.11	4.00
975.28	0.69
975.45	-0.15
975.62	1.06
975.79	-1.15
975.96	-0.74
976.13	-2.14
976.30	-0.06
976.47	-3.00
976.64	-3.17
976.80	-9.12
976.97	-12.75
977.14	-12.18
977.31	-10.74
977.48	-11.39
977.65	-7.78
977.82	-8.96
977.99	-10.44
978.16	-10.95
978.33	-10.93
978.50	-9.85
978.67	-6.53
978.83	-2.92
979.00	-2.96
979.17	-1.21
979.34	-2.09
979.51	-0.52
979.68	-0.74
979.85	0.52
980.02	0.97
980.19	1.88
980.36	2.87
980.52	1.88
980.69	0.19
980.86	0.37
981.03	-0.82
981.20	3.65
981.37	0.28
981.54	0.24
981.71	-2.27
981.88	-4.41
982.04	-4.86
982.21	-4.60
982.38	-4.38
982.55	-4.45
982.72	-1.77
982.89	-2.89
983.06	-6.07
983.22	-4.26
983.39	0.17
983.56	2.61
983.73	2.85
983.90	3.54
984.07	2.01
984.24	2.85
984.40	3.17
984.57	2.83
984.74	6.44
984.91	4.93
985.08	4.56
985.25	1.99
985.41	2.89
985.58	4.08
985.75	5.75
985.92	8.81
986.09	5.38
986.26	6.68
986.42	6.26
986.59	4.95
986.76	7.69
986.93	7.02
987.10	7.97
987.27	4.51
987.43	3.00
987.60	2.22
987.77	3.22
987.94	5.66
988.11	4.45
988.27	-0.17
988.44	1.04
988.61	3.41
988.78	1.99
988.95	1.86
989.11	3.48
989.28	3.65
989.45	0.48
989.62	-1.56
989.79	-0.13
989.95	1.51
990.12	3.48
990.29	2.36
990.46	0.39
990.62	1.04
990.79	-0.19
990.96	-0.32
991.13	1.66
991.30	5.60
991.46	2.90
991.63	5.08
991.80	2.03
991.97	1.97
992.13	3.22
992.30	1.45
992.47	3.33
992.64	1.55
992.80	1.92
992.97	1.45
993.14	0.41
993.31	1.28
993.47	-1.82
993.64	0.37
993.81	2.59
993.98	1.71
994.14	1.19
994.31	-4.36
994.48	-4.82
994.64	-7.02
994.81	-7.61
994.98	-8.01
995.15	-2.53
995.31	-1.02
995.48	-0.78
995.65	0.76
995.82	-0.76
995.98	-0.17
996.15	3.56
996.32	8.30
996.48	13.22
996.65	14.99
996.82	17.00
996.99	9.72
997.15	9.83
997.32	8.73
997.49	8.28
997.65	10.57
997.82	10.15
997.99	7.76
998.15	3.85
998.32	2.07
998.49	-0.47
998.65	-1.36
998.82	-1.36
998.99	-1.02
999.15	-1.15
999.32	-0.80
999.49	0.97
999.65	-0.04
999.82	-2.07
999.99	-0.69
1000.15	-2.53
1000.32	-1.92
1000.49	-3.15
1000.65	0.52
1000.82	0.19
1000.99	2.35
1001.15	1.43
1001.32	-2.94
1001.49	-0.56
1001.65	1.56
1001.82	-1.36
1001.99	-0.73
1002.15	2.53
1002.32	4.39
1002.49	3.17
1002.65	2.48
1002.82	3.85
1002.99	3.50
1003.15	3.52
1003.32	2.74
1003.48	6.09
1003.65	11.45
1003.82	10.17
1003.98	7.84
1004.15	5.55
1004.32	6.59
1004.48	6.40
1004.65	4.39
1004.81	4.45
1004.98	5.23
1005.15	5.70
1005.31	4.95
1005.48	4.19
1005.64	3.93
1005.81	3.39
1005.98	4.41
1006.14	1.84
1006.31	0.35
1006.47	0.11
1006.64	0.48
1006.81	1.19
1006.97	1.51
1007.14	1.73
1007.30	2.94
1007.47	3.98
1007.63	2.81
1007.80	2.10
1007.97	4.80
1008.13	6.53
1008.30	5.70
1008.46	5.77
1008.63	4.71
1008.79	4.34
1008.96	2.77
1009.13	-2.92
1009.29	-3.15
1009.46	-0.88
1009.62	-1.02
1009.79	-2.59
1009.95	-1.21
1010.12	-1.27
1010.28	-2.74
1010.45	-4.86
1010.62	-4.06
1010.78	-1.25
1010.95	4.11
1011.11	4.45
1011.28	3.61
1011.44	1.40
1011.61	1.69
1011.77	0.99
1011.94	0.97
1012.10	2.98
1012.27	6.26
1012.43	3.93
1012.60	2.31
1012.76	0.30
1012.93	1.66
1013.10	0.67
1013.26	2.76
1013.43	4.51
1013.59	5.38
1013.76	8.02
1013.92	6.39
1014.09	3.65
1014.25	2.90
1014.42	2.57
1014.58	2.35
1014.75	0.34
1014.91	-2.70
1015.08	-0.24
1015.24	-1.12
1015.41	-2.98
1015.57	-4.19
1015.73	-3.93
1015.90	0.99
1016.06	3.72
1016.23	3.63
1016.39	5.59
1016.56	8.36
1016.72	8.81
1016.89	6.22
1017.05	5.46
1017.22	5.62
1017.38	6.76
1017.55	6.14
1017.71	3.00
1017.88	1.55
1018.04	2.68
1018.21	-1.36
1018.37	-2.53
1018.53	-0.11
1018.70	3.00
1018.86	2.40
1019.03	4.19
1019.19	0.56
1019.36	3.09
1019.52	1.88
1019.69	1.75
1019.85	2.31
1020.01	4.19
1020.18	4.00
1020.34	5.38
1020.51	-1.30
1020.67	-0.91
1020.84	-0.32
1021.00	2.63
1021.16	1.81
1021.33	4.88
1021.49	5.14
1021.66	3.67
1021.82	2.10
1021.98	2.40
1022.15	2.89
1022.31	8.51
1022.48	5.57
1022.64	3.89
1022.80	1.56
1022.97	-0.63
1023.13	0.15
1023.30	0.67
1023.46	1.01
1023.62	3.69
1023.79	3.39
1023.95	1.01
1024.12	-0.02
1024.28	3.07
1024.44	5.05
1024.61	7.09
1024.77	9.70
1024.93	7.43
1025.10	8.01
1025.26	7.17
1025.43	7.13
1025.59	5.05
1025.75	5.81
1025.92	6.74
1026.08	5.75
1026.24	3.03
1026.41	4.13
1026.57	5.12
1026.73	4.36
1026.90	4.54
1027.06	3.91
1027.23	1.40
1027.39	3.44
1027.55	3.26
1027.72	3.93
1027.88	5.44
1028.04	3.00
1028.21	0.24
1028.37	-1.01
1028.53	-1.10
1028.70	-2.51
1028.86	-0.15
1029.02	3.20
1029.19	2.87
1029.35	4.23
1029.51	2.25
1029.67	4.06
1029.84	3.70
1030.00	4.71
1030.16	5.05
1030.33	5.32
1030.49	7.52
1030.65	3.65
1030.82	1.62
1030.98	1.62
1031.14	0.11
1031.31	-2.49
1031.47	-2.29
1031.63	-0.17
1031.79	-1.15
1031.96	-2.14
1032.12	-3.00
1032.28	-3.48
1032.45	-0.47
1032.61	-0.84
1032.77	-2.55
1032.93	-0.76
1033.10	0.52
1033.26	-3.17
1033.42	0.02
1033.58	3.03
1033.75	1.68
1033.91	-1.32
1034.07	-1.90
1034.24	-0.45
1034.40	-0.97
1034.56	1.10
1034.72	1.30
1034.89	1.45
1035.05	3.22
1035.21	1.21
1035.37	-1.15
1035.54	-2.40
1035.70	-0.09
1035.86	-1.45
1036.02	-3.69
1036.19	-2.79
1036.35	-1.92
1036.51	-4.64
1036.67	-3.76
1036.83	-4.71
1037.00	-5.03
1037.16	-5.55
1037.32	-2.14
1037.48	-1.23
1037.65	-0.48
1037.81	-0.56
1037.97	1.64
1038.13	-0.93
1038.29	1.62
1038.46	2.85
1038.62	5.19
1038.78	6.14
1038.94	6.13
1039.10	6.26
1039.27	6.72
1039.43	7.78
1039.59	5.57
1039.75	2.42
1039.91	4.38
1040.08	1.86
1040.24	-1.41
1040.40	-1.02
1040.56	-2.44
1040.72	-1.90
1040.89	-0.15
1041.05	0.61
1041.21	0.50
1041.37	2.42
1041.53	4.82
1041.69	5.47
1041.86	4.71
1042.02	6.44
1042.18	5.53
1042.34	6.85
1042.50	5.57
1042.66	2.35
1042.83	1.15
1042.99	0.26
1043.15	0.15
1043.31	-1.77
1043.47	-4.32
1043.63	-2.44
1043.79	-1.25
1043.96	-4.86
1044.12	-4.04
1044.28	-2.76
1044.44	-4.38
1044.60	-1.36
1044.76	-2.33
1044.92	-4.06
1045.09	-2.38
1045.25	-1.23
1045.41	0.35
1045.57	-0.78
1045.73	0.80
1045.89	-2.07
1046.05	-1.62
1046.21	18.23
1046.38	-2.87
1046.54	-7.78
1046.70	-10.65
1046.86	3.89
>>>>>End Processed Spectral Data<<<<<
