SpectraSuite Data File
++++++++++++++++++++++++++++++++++++
Date: Mon May 06 13:49:38 CDT 2013
User: Students
Dark Spectrum Present: Yes
Reference Spectrum Present: Yes
Number of Sampled Component Spectra: 1
Spectrometers: USB4H00887
Integration Time (usec): 100000 (USB4H00887)
Spectra Averaged: 10 (USB4H00887)
Boxcar Smoothing: 5 (USB4H00887)
Correct for Electrical Dark: No (USB4H00887)
Strobe/Lamp Enabled: No (USB4H00887)
Correct for Detector Non-linearity: No (USB4H00887)
Correct for Stray Light: No (USB4H00887)
Number of Pixels in Processed Spectrum: 3648
>>>>>Begin Processed Spectral Data<<<<<
345.83	-28.88
346.05	-28.88
346.26	-28.88
346.48	15.97
346.70	-7.99
346.92	-7.21
347.14	-5.21
347.35	-1.60
347.57	-0.73
347.79	-3.13
348.01	-3.72
348.23	-1.97
348.44	-5.51
348.66	-5.85
348.88	-4.06
349.10	-3.24
349.32	-1.71
349.53	0.35
349.75	-0.93
349.97	3.05
350.19	4.49
350.41	6.01
350.62	4.64
350.84	8.96
351.06	6.07
351.28	5.08
351.50	5.44
351.71	5.03
351.93	4.21
352.15	4.82
352.37	2.70
352.58	4.73
352.80	4.62
353.02	6.01
353.24	6.70
353.46	8.25
353.67	6.11
353.89	6.14
354.11	5.38
354.33	5.88
354.54	5.68
354.76	5.86
354.98	3.63
355.20	3.67
355.41	1.99
355.63	-0.58
355.85	-0.93
356.07	-1.32
356.28	-2.10
356.50	-2.51
356.72	-3.20
356.94	-1.32
357.15	-0.28
357.37	-0.61
357.59	2.40
357.81	0.00
358.02	-0.74
358.24	-0.30
358.46	3.82
358.68	3.18
358.89	5.51
359.11	4.24
359.33	4.26
359.55	1.25
359.76	0.47
359.98	-2.42
360.20	2.03
360.42	5.32
360.63	3.13
360.85	-0.71
361.07	-1.21
361.29	-0.09
361.50	-0.34
361.72	-1.77
361.94	-0.11
362.15	-0.02
362.37	-1.38
362.59	-2.61
362.81	-5.83
363.02	-2.61
363.24	-2.03
363.46	-0.52
363.68	-3.31
363.89	-1.92
364.11	-1.79
364.33	-1.38
364.54	-0.37
364.76	2.36
364.98	2.74
365.20	3.30
365.41	-0.47
365.63	1.66
365.85	0.97
366.06	2.87
366.28	2.38
366.50	3.37
366.71	5.01
366.93	4.00
367.15	4.38
367.37	4.88
367.58	7.30
367.80	10.98
368.02	11.21
368.23	12.36
368.45	9.77
368.67	11.10
368.88	9.57
369.10	9.38
369.32	10.20
369.53	10.05
369.75	11.73
369.97	10.89
370.19	10.33
370.40	11.65
370.62	11.79
370.84	12.96
371.05	13.39
371.27	14.75
371.49	13.68
371.70	14.32
371.92	11.56
372.14	7.97
372.35	7.48
372.57	9.53
372.79	7.17
373.00	7.41
373.22	7.43
373.44	4.45
373.65	1.01
373.87	-1.02
374.09	-3.65
374.30	-2.66
374.52	-0.84
374.74	-0.60
374.95	-4.69
375.17	-2.85
375.39	-1.99
375.60	-3.35
375.82	-3.48
376.04	1.43
376.25	2.72
376.47	3.56
376.68	2.31
376.90	4.06
377.12	4.93
377.33	6.48
377.55	7.15
377.77	3.97
377.98	3.72
378.20	7.80
378.42	6.80
378.63	8.08
378.85	10.80
379.07	14.19
379.28	9.29
379.50	7.52
379.71	9.25
379.93	7.95
380.15	10.11
380.36	9.53
380.58	7.65
380.80	7.39
381.01	5.64
381.23	4.51
381.44	3.48
381.66	7.52
381.88	5.98
382.09	2.87
382.31	2.31
382.53	2.76
382.74	6.26
382.96	4.67
383.17	2.27
383.39	2.31
383.61	4.69
383.82	3.17
384.04	0.19
384.25	2.64
384.47	3.00
384.69	0.41
384.90	-2.51
385.12	-5.10
385.33	-3.46
385.55	-0.95
385.77	-0.86
385.98	-3.67
386.20	-1.68
386.41	0.35
386.63	0.52
386.85	3.61
387.06	3.07
387.28	3.69
387.49	2.53
387.71	2.20
387.93	-3.30
388.14	-2.42
388.36	-4.49
388.57	-4.84
388.79	-4.54
389.01	-5.60
389.22	-9.61
389.44	-7.56
389.65	-6.13
389.87	-3.57
390.08	-4.28
390.30	-0.73
390.52	0.78
390.73	3.80
390.95	3.35
391.16	1.08
391.38	-1.12
391.59	-1.02
391.81	0.39
392.03	-1.23
392.24	-3.44
392.46	-2.94
392.67	-0.47
392.89	-1.19
393.10	-1.36
393.32	-3.70
393.53	-2.33
393.75	1.17
393.97	4.10
394.18	2.07
394.40	4.54
394.61	4.19
394.83	4.64
395.04	2.31
395.26	0.95
395.47	2.03
395.69	4.13
395.91	3.70
396.12	4.51
396.34	3.63
396.55	5.01
396.77	1.84
396.98	3.95
397.20	3.37
397.41	3.61
397.63	2.12
397.84	-0.86
398.06	-3.37
398.27	-0.58
398.49	-3.54
398.71	-6.91
398.92	-7.47
399.14	-3.78
399.35	-5.16
399.57	-6.35
399.78	-8.15
400.00	-6.57
400.21	-8.81
400.43	-5.94
400.64	-9.01
400.86	-8.01
401.07	-2.14
401.29	-2.59
401.50	-7.54
401.72	-7.30
401.93	-5.06
402.15	-2.49
402.36	-2.49
402.58	2.87
402.79	1.17
403.01	-1.25
403.22	-0.19
403.44	-0.97
403.65	2.10
403.87	8.38
404.08	9.90
404.30	8.49
404.51	7.54
404.73	10.28
404.94	8.88
405.16	10.20
405.37	14.50
405.59	13.13
405.80	12.03
406.02	8.23
406.23	5.90
406.45	2.03
406.66	2.87
406.88	1.71
407.09	-1.92
407.31	-0.74
407.52	-0.97
407.74	-1.45
407.95	0.54
408.17	1.10
408.38	4.41
408.60	2.35
408.81	7.22
409.03	6.40
409.24	7.11
409.45	9.90
409.67	8.27
409.88	9.31
410.10	7.58
410.31	7.97
410.53	4.60
410.74	1.51
410.96	2.01
411.17	-0.04
411.39	-0.93
411.60	-0.99
411.82	-2.53
412.03	-1.19
412.24	-2.70
412.46	-0.45
412.67	-3.52
412.89	-4.28
413.10	-3.22
413.32	-2.10
413.53	-2.12
413.75	-1.32
413.96	-1.45
414.17	-2.05
414.39	-3.52
414.60	-4.15
414.82	-3.89
415.03	-2.03
415.25	-0.54
415.46	2.22
415.68	4.06
415.89	9.59
416.10	9.42
416.32	10.24
416.53	10.44
416.75	10.26
416.96	9.38
417.18	8.55
417.39	6.11
417.60	6.68
417.82	3.52
418.03	1.60
418.25	-0.93
418.46	3.02
418.67	3.74
418.89	7.15
419.10	6.78
419.32	8.86
419.53	6.93
419.75	9.63
419.96	7.15
420.17	5.14
420.39	5.29
420.60	-1.02
420.82	-3.48
421.03	-5.64
421.24	-13.44
421.46	-12.62
421.67	-13.87
421.89	-12.83
422.10	-13.35
422.31	-9.10
422.53	-5.16
422.74	-4.67
422.96	-0.04
423.17	0.50
423.38	0.58
423.60	4.47
423.81	4.36
424.03	6.35
424.24	5.40
424.45	4.86
424.67	3.44
424.88	1.60
425.09	0.22
425.31	-3.69
425.52	-6.24
425.74	-6.29
425.95	-7.75
426.16	-7.24
426.38	-7.09
426.59	-5.92
426.80	-7.30
427.02	-7.26
427.23	-6.50
427.45	-4.43
427.66	0.19
427.87	0.58
428.09	3.67
428.30	6.72
428.51	8.71
428.73	6.29
428.94	7.30
429.15	8.62
429.37	7.71
429.58	7.67
429.79	6.52
430.01	2.22
430.22	2.05
430.44	0.34
430.65	0.00
430.86	-1.56
431.08	-1.38
431.29	0.54
431.50	-0.15
431.72	1.94
431.93	3.07
432.14	3.85
432.36	6.89
432.57	8.34
432.78	4.78
433.00	0.88
433.21	1.04
433.42	1.38
433.64	-2.61
433.85	0.13
434.06	0.86
434.28	-1.79
434.49	-0.32
434.70	-0.71
434.92	0.78
435.13	4.04
435.34	6.72
435.56	3.57
435.77	5.83
435.98	9.96
436.20	9.12
436.41	7.30
436.62	6.31
436.83	1.66
437.05	1.68
437.26	0.80
437.47	-2.22
437.69	-2.36
437.90	-0.58
438.11	-0.71
438.33	-6.29
438.54	-8.66
438.75	-7.52
438.97	-5.59
439.18	-2.92
439.39	-1.58
439.60	-1.23
439.82	2.31
440.03	3.09
440.24	2.46
440.46	1.08
440.67	4.30
440.88	5.57
441.10	5.59
441.31	6.94
441.52	6.63
441.73	3.98
441.95	5.60
442.16	5.36
442.37	3.59
442.58	4.54
442.80	2.07
443.01	2.87
443.22	1.56
443.44	0.17
443.65	-0.39
443.86	0.58
444.07	2.46
444.29	-0.58
444.50	-0.06
444.71	1.86
444.92	-0.02
445.14	4.21
445.35	3.67
445.56	7.80
445.78	8.12
445.99	9.05
446.20	10.98
446.41	8.12
446.63	9.72
446.84	9.55
447.05	8.88
447.26	11.67
447.48	9.70
447.69	8.77
447.90	5.88
448.11	5.53
448.33	3.78
448.54	0.20
448.75	1.47
448.96	-1.34
449.18	0.45
449.39	0.41
449.60	2.40
449.81	2.27
450.03	2.81
450.24	2.83
450.45	3.17
450.66	3.70
450.87	4.32
451.09	4.41
451.30	4.45
451.51	3.54
451.72	5.08
451.94	2.79
452.15	3.76
452.36	3.76
452.57	3.84
452.78	2.51
453.00	0.95
453.21	-0.71
453.42	-1.02
453.63	2.25
453.85	2.94
454.06	3.30
454.27	2.98
454.48	2.79
454.69	3.31
454.91	5.51
455.12	6.67
455.33	10.72
455.54	13.68
455.75	16.14
455.97	15.81
456.18	15.49
456.39	14.52
456.60	14.08
456.81	14.19
457.03	16.10
457.24	17.13
457.45	18.90
457.66	15.96
457.87	16.29
458.09	15.69
458.30	13.67
458.51	10.43
458.72	10.46
458.93	9.46
459.15	10.78
459.36	9.87
459.57	7.50
459.78	6.89
459.99	5.64
460.20	6.50
460.42	5.14
460.63	6.98
460.84	10.74
461.05	12.53
461.26	14.13
461.47	16.31
461.69	16.20
461.90	18.08
462.11	18.38
462.32	22.17
462.53	20.11
462.74	23.50
462.96	25.58
463.17	26.90
463.38	25.26
463.59	26.46
463.80	25.62
464.01	26.75
464.23	27.57
464.44	28.63
464.65	29.71
464.86	31.99
465.07	29.70
465.28	27.59
465.49	30.72
465.71	34.07
465.92	35.97
466.13	35.76
466.34	36.53
466.55	36.08
466.76	37.29
466.97	36.79
467.19	36.92
467.40	40.75
467.61	43.27
467.82	40.77
468.03	43.19
468.24	42.84
468.45	47.53
468.66	47.92
468.88	51.11
469.09	51.55
469.30	56.06
469.51	60.51
469.72	58.65
469.93	61.74
470.14	62.98
470.35	61.33
470.57	62.52
470.78	58.59
470.99	61.20
471.20	58.93
471.41	57.53
471.62	57.38
471.83	56.47
472.04	59.58
472.25	60.23
472.47	62.59
472.68	66.21
472.89	67.97
473.10	70.58
473.31	70.90
473.52	74.21
473.73	81.47
473.94	82.68
474.15	82.40
474.36	84.73
474.57	84.93
474.79	85.18
475.00	85.83
475.21	89.05
475.42	91.53
475.63	93.42
475.84	97.04
476.05	97.13
476.26	97.61
476.47	99.49
476.68	100.72
476.89	102.58
477.10	108.47
477.32	109.79
477.53	113.01
477.74	112.92
477.95	115.26
478.16	114.03
478.37	114.11
478.58	115.88
478.79	120.35
479.00	124.40
479.21	125.30
479.42	119.66
479.63	121.74
479.84	123.59
480.05	125.97
480.26	129.77
480.47	131.14
480.69	134.33
480.90	138.76
481.11	139.11
481.32	143.97
481.53	147.92
481.74	154.55
481.95	156.50
482.16	155.89
482.37	160.15
482.58	164.41
482.79	167.37
483.00	170.80
483.21	172.25
483.42	179.22
483.63	177.60
483.84	179.57
484.05	183.68
484.26	188.02
484.47	193.20
484.68	197.85
484.89	197.68
485.10	202.67
485.31	206.08
485.52	210.27
485.73	208.15
485.94	210.92
486.15	213.29
486.37	214.09
486.58	214.11
486.79	215.06
487.00	217.18
487.21	218.93
487.42	223.90
487.63	224.46
487.84	225.91
488.05	231.09
488.26	233.17
488.47	235.46
488.68	238.38
488.89	244.56
489.10	247.66
489.31	249.85
489.52	249.16
489.73	250.04
489.94	254.49
490.15	260.02
490.36	261.88
490.57	263.22
490.78	267.73
490.99	268.15
491.20	266.22
491.41	268.99
491.62	269.44
491.83	274.41
492.04	276.25
492.25	279.57
492.45	276.59
492.66	278.80
492.87	280.35
493.08	280.05
493.29	283.94
493.50	286.05
493.71	287.11
493.92	291.54
494.13	294.44
494.34	295.21
494.55	293.19
494.76	295.04
494.97	296.56
495.18	300.42
495.39	303.47
495.60	304.55
495.81	307.18
496.02	309.39
496.23	306.66
496.44	311.81
496.65	313.69
496.86	319.63
497.07	320.86
497.28	321.96
497.49	322.41
497.70	323.75
497.91	325.50
498.12	327.40
498.32	331.14
498.53	337.78
498.74	336.18
498.95	337.15
499.16	338.19
499.37	341.30
499.58	343.95
499.79	344.23
500.00	345.44
500.21	346.72
500.42	349.05
500.63	350.39
500.84	347.71
501.05	349.59
501.26	353.01
501.46	355.77
501.67	356.61
501.88	359.79
502.09	365.47
502.30	369.06
502.51	373.72
502.72	374.59
502.93	375.82
503.14	379.02
503.35	376.49
503.56	377.76
503.77	376.62
503.97	381.50
504.18	381.42
504.39	380.79
504.60	380.74
504.81	381.39
505.02	383.10
505.23	381.11
505.44	386.68
505.65	390.38
505.86	390.98
506.07	391.91
506.27	396.32
506.48	398.33
506.69	400.45
506.90	402.65
507.11	403.45
507.32	407.14
507.53	413.89
507.74	414.86
507.95	419.95
508.15	425.70
508.36	428.45
508.57	429.92
508.78	432.55
508.99	437.48
509.20	439.87
509.41	443.20
509.62	444.95
509.82	444.26
510.03	441.67
510.24	444.89
510.45	442.73
510.66	446.14
510.87	443.65
511.08	444.20
511.29	446.03
511.49	449.40
511.70	452.88
511.91	456.81
512.12	463.85
512.33	467.76
512.54	465.37
512.75	470.01
512.95	472.47
513.16	475.31
513.37	479.08
513.58	478.22
513.79	481.18
514.00	479.02
514.20	480.17
514.41	479.22
514.62	483.21
514.83	488.89
515.04	491.64
515.25	494.12
515.46	500.54
515.66	502.96
515.87	510.24
516.08	511.27
516.29	517.69
516.50	521.93
516.71	527.04
516.91	531.30
517.12	533.96
517.33	534.18
517.54	537.42
517.75	536.85
517.95	542.04
518.16	542.41
518.37	543.42
518.58	545.15
518.79	547.63
519.00	549.30
519.20	550.66
519.41	550.83
519.62	556.66
519.83	559.45
520.04	560.23
520.24	561.59
520.45	564.76
520.66	569.73
520.87	573.23
521.08	574.79
521.28	576.50
521.49	577.19
521.70	582.37
521.91	583.37
522.12	585.09
522.32	588.94
522.53	592.57
522.74	593.45
522.95	594.30
523.16	596.41
523.36	598.27
523.57	600.05
523.78	603.82
523.99	607.19
524.20	609.72
524.40	613.29
524.61	619.18
524.82	619.60
525.03	623.96
525.23	630.46
525.44	633.73
525.65	636.51
525.86	637.29
526.06	642.43
526.27	643.96
526.48	647.07
526.69	647.66
526.90	648.28
527.10	653.08
527.31	655.50
527.52	657.47
527.73	659.28
527.93	662.93
528.14	666.58
528.35	665.18
528.56	668.29
528.76	670.39
528.97	671.64
529.18	673.09
529.39	671.40
529.59	672.81
529.80	674.21
530.01	674.12
530.22	677.19
530.42	678.85
530.63	682.12
530.84	681.04
531.05	684.51
531.25	685.60
531.46	689.59
531.67	690.85
531.88	692.16
532.08	691.73
532.29	697.50
532.50	698.47
532.70	704.32
532.91	707.07
533.12	712.51
533.33	711.43
533.53	716.10
533.74	717.25
533.95	724.05
534.15	726.14
534.36	730.45
534.57	730.25
534.78	731.39
534.98	729.52
535.19	729.32
535.40	728.70
535.60	730.62
535.81	732.28
536.02	736.02
536.23	736.06
536.43	740.38
536.64	741.23
536.85	744.08
537.05	748.50
537.26	752.55
537.47	756.20
537.67	756.61
537.88	757.51
538.09	760.26
538.30	759.41
538.50	760.26
538.71	760.69
538.92	767.45
539.12	768.73
539.33	767.32
539.54	766.11
539.74	769.07
539.95	770.04
540.16	773.52
540.36	775.08
540.57	777.73
540.78	778.90
540.98	778.77
541.19	774.11
541.40	775.23
541.60	778.64
541.81	781.95
542.02	781.69
542.22	786.01
542.43	785.94
542.64	783.94
542.84	783.70
543.05	787.82
543.26	787.31
543.46	787.35
543.67	788.26
543.88	785.69
544.08	785.84
544.29	784.67
544.50	783.87
544.70	785.90
544.91	791.24
545.12	789.77
545.32	785.92
545.53	791.78
545.74	792.02
545.94	789.38
546.15	790.12
546.35	785.90
546.56	784.61
546.77	784.30
546.97	779.64
547.18	773.65
547.39	771.21
547.59	772.53
547.80	765.23
548.01	766.63
548.21	766.46
548.42	763.63
548.62	763.45
548.83	765.87
549.04	764.62
549.24	764.56
549.45	760.41
549.65	757.84
549.86	752.46
550.07	753.91
550.27	750.56
550.48	747.79
550.69	748.59
550.89	747.64
551.10	743.28
551.30	742.30
551.51	744.03
551.72	746.02
551.92	744.03
552.13	742.65
552.33	736.54
552.54	733.82
552.75	732.76
552.95	728.11
553.16	725.69
553.36	721.35
553.57	719.75
553.78	714.93
553.98	712.56
554.19	713.85
554.39	710.29
554.60	707.67
554.80	701.00
555.01	695.49
555.22	691.93
555.42	688.81
555.63	683.59
555.83	680.84
556.04	680.45
556.25	676.28
556.45	670.97
556.66	668.64
556.86	663.34
557.07	664.01
557.27	660.15
557.48	656.09
557.68	648.91
557.89	646.66
558.10	638.89
558.30	630.55
558.51	625.45
558.71	621.43
558.92	619.68
559.12	619.08
559.33	614.13
559.54	610.13
559.74	608.67
559.95	605.96
560.15	605.31
560.36	603.02
560.56	599.16
560.77	595.62
560.97	585.96
561.18	576.43
561.38	572.24
561.59	565.39
561.79	560.38
562.00	550.62
562.21	545.41
562.41	540.70
562.62	534.45
562.82	529.46
563.03	522.01
563.23	520.13
563.44	515.53
563.64	510.97
563.85	508.70
564.05	504.81
564.26	501.18
564.46	499.65
564.67	496.73
564.87	488.31
565.08	483.15
565.28	480.17
565.49	479.08
565.69	477.03
565.90	471.01
566.10	461.80
566.31	459.68
566.51	454.02
566.72	451.35
566.92	444.04
567.13	445.23
567.33	441.47
567.54	437.37
567.74	431.62
567.95	426.91
568.15	423.45
568.36	424.60
568.56	418.08
568.77	414.62
568.97	405.65
569.18	401.96
569.38	397.55
569.59	392.80
569.79	387.48
570.00	384.53
570.20	378.56
570.41	370.66
570.61	366.12
570.82	362.68
571.02	360.65
571.23	356.76
571.43	349.10
571.64	343.41
571.84	338.53
572.05	334.95
572.25	332.11
572.45	329.26
572.66	328.12
572.86	323.56
573.07	317.17
573.27	314.44
573.48	310.73
573.68	308.46
573.89	304.27
574.09	301.41
574.30	301.37
574.50	296.94
574.70	295.28
574.91	289.25
575.11	285.49
575.32	281.43
575.52	278.17
575.73	275.82
575.93	272.73
576.14	269.36
576.34	269.07
576.54	262.21
576.75	258.92
576.95	253.17
577.16	253.97
577.36	251.42
577.57	250.02
577.77	246.89
577.97	244.88
578.18	240.79
578.38	240.97
578.59	236.13
578.79	232.48
579.00	230.04
579.20	229.32
579.40	226.04
579.61	223.64
579.81	221.01
580.02	217.68
580.22	216.38
580.42	217.59
580.63	210.92
580.83	206.70
581.04	207.18
581.24	205.49
581.45	202.04
581.65	197.68
581.85	195.54
582.06	193.24
582.26	189.51
582.47	184.45
582.67	180.31
582.87	178.68
583.08	179.14
583.28	180.46
583.48	176.52
583.69	174.86
583.89	174.11
584.10	172.53
584.30	169.66
584.50	170.20
584.71	166.91
584.91	164.71
585.12	166.44
585.32	164.15
585.52	161.27
585.73	163.87
585.93	161.64
586.13	159.80
586.34	155.98
586.54	155.85
586.75	152.69
586.95	155.14
587.15	155.92
587.36	153.09
587.56	152.69
587.76	146.08
587.97	141.64
588.17	140.34
588.37	139.28
588.58	138.95
588.78	138.44
588.98	139.41
589.19	138.39
589.39	136.49
589.60	133.58
589.80	133.32
590.00	135.28
590.21	131.33
590.41	130.46
590.61	130.75
590.82	128.11
591.02	130.60
591.22	130.27
591.43	128.28
591.63	127.29
591.83	128.09
592.04	126.96
592.24	126.83
592.44	126.88
592.65	124.67
592.85	123.59
593.05	127.16
593.26	121.74
593.46	120.51
593.66	116.72
593.86	116.12
594.07	115.41
594.27	111.78
594.47	122.77
594.68	124.35
594.88	124.72
595.08	122.77
595.29	119.64
595.49	119.64
595.69	116.59
595.90	119.10
596.10	118.65
596.30	117.40
596.50	119.25
596.71	106.35
596.91	104.47
597.11	106.20
597.32	110.89
597.52	109.75
597.72	112.25
597.93	113.70
598.13	115.10
598.33	115.92
598.53	114.50
598.74	112.95
598.94	114.15
599.14	112.94
599.35	112.92
599.55	111.06
599.75	116.68
599.95	114.74
600.16	115.02
600.36	113.29
600.56	110.78
600.76	113.03
600.97	116.94
601.17	114.54
601.37	116.88
601.58	115.97
601.78	112.81
601.98	110.65
602.18	110.98
602.39	109.81
602.59	108.80
602.79	106.77
602.99	106.33
603.20	99.40
603.40	99.01
603.60	95.75
603.80	96.44
604.01	97.95
604.21	92.98
604.41	93.50
604.61	94.26
604.82	95.10
605.02	98.51
605.22	99.36
605.42	100.03
605.62	99.75
605.83	99.75
606.03	98.02
606.23	99.64
606.43	102.25
606.64	99.48
606.84	100.18
607.04	99.31
607.24	99.12
607.45	96.61
607.65	100.80
607.85	102.92
608.05	107.70
608.25	111.02
608.46	110.63
608.66	113.23
608.86	116.55
609.06	114.84
609.26	119.30
609.47	120.79
609.67	126.88
609.87	121.52
610.07	119.97
610.28	118.78
610.48	116.66
610.68	117.65
610.88	113.48
611.08	114.02
611.29	113.98
611.49	107.61
611.69	102.34
611.89	99.53
612.09	102.98
612.29	103.46
612.50	99.61
612.70	102.25
612.90	101.93
613.10	103.89
613.30	104.30
613.51	105.68
613.71	108.67
613.91	108.24
614.11	105.15
614.31	106.08
614.51	107.13
614.72	109.10
614.92	107.11
615.12	103.11
615.32	101.58
615.52	99.74
615.72	100.67
615.93	96.55
616.13	100.65
616.33	101.75
616.53	101.97
616.73	101.78
616.93	100.11
617.14	98.71
617.34	100.54
617.54	102.45
617.74	100.54
617.94	96.96
618.14	101.32
618.34	99.79
618.55	98.45
618.75	98.75
618.95	96.16
619.15	96.07
619.35	97.82
619.55	95.08
619.75	95.38
619.96	95.08
620.16	99.48
620.36	98.06
620.56	97.61
620.76	97.69
620.96	95.53
621.16	97.24
621.36	100.56
621.57	99.51
621.77	102.10
621.97	100.02
622.17	99.83
622.37	98.88
622.57	101.71
622.77	103.11
622.97	101.11
623.18	101.65
623.38	101.19
623.58	102.55
623.78	103.14
623.98	105.69
624.18	106.90
624.38	109.79
624.58	106.53
624.78	107.69
624.98	107.22
625.19	109.19
625.39	110.09
625.59	107.98
625.79	106.53
625.99	105.41
626.19	103.89
626.39	101.90
626.59	100.18
626.79	102.32
626.99	99.12
627.19	100.72
627.40	104.11
627.60	104.19
627.80	107.76
628.00	108.47
628.20	108.32
628.40	108.90
628.60	109.55
628.80	109.70
629.00	110.55
629.20	109.85
629.40	108.97
629.60	103.31
629.80	102.19
630.00	105.27
630.20	103.55
630.41	107.24
630.61	105.86
630.81	104.24
631.01	107.50
631.21	107.41
631.41	107.56
631.61	107.69
631.81	112.30
632.01	115.77
632.21	111.43
632.41	108.64
632.61	106.85
632.81	106.83
633.01	111.20
633.21	108.73
633.41	108.56
633.61	109.99
633.81	109.34
634.01	109.25
634.21	106.01
634.41	105.68
634.61	105.62
634.81	104.63
635.01	103.96
635.22	99.59
635.42	99.94
635.62	101.60
635.82	100.18
636.02	103.89
636.22	104.60
636.42	107.13
636.62	108.13
636.82	110.72
637.02	109.38
637.22	111.17
637.42	114.37
637.62	115.52
637.82	110.11
638.02	112.27
638.22	108.15
638.42	106.22
638.62	103.07
638.82	102.64
639.02	103.94
639.22	106.22
639.42	102.03
639.62	101.82
639.82	97.37
640.02	102.64
640.22	100.54
640.42	99.61
640.62	102.12
640.82	103.44
641.02	102.16
641.22	102.62
641.42	102.62
641.61	109.40
641.81	111.78
642.01	115.56
642.21	112.10
642.41	111.02
642.61	111.50
642.81	112.71
643.01	114.11
643.21	115.97
643.41	114.57
643.61	114.35
643.81	111.41
644.01	109.12
644.21	105.75
644.41	107.13
644.61	110.39
644.81	112.56
645.01	111.41
645.21	108.86
645.41	105.14
645.61	106.57
645.81	108.45
646.01	109.25
646.21	108.95
646.40	111.45
646.60	111.47
646.80	111.84
647.00	111.50
647.20	106.53
647.40	109.77
647.60	113.18
647.80	110.14
648.00	109.58
648.20	110.70
648.40	112.53
648.60	111.93
648.80	110.35
649.00	109.92
649.20	108.73
649.39	113.49
649.59	111.71
649.79	112.69
649.99	114.89
650.19	114.44
650.39	114.82
650.59	112.06
650.79	114.24
650.99	114.93
651.19	112.27
651.39	112.99
651.58	109.88
651.78	109.51
651.98	107.67
652.18	107.69
652.38	107.78
652.58	108.24
652.78	109.01
652.98	106.29
653.18	109.62
653.38	112.82
653.57	111.58
653.77	112.38
653.97	113.68
654.17	112.92
654.37	113.48
654.57	111.80
654.77	109.51
654.97	110.27
655.16	110.01
655.36	107.13
655.56	104.19
655.76	104.84
655.96	107.48
656.16	105.94
656.36	105.95
656.56	105.68
656.75	107.61
656.95	107.70
657.15	108.71
657.35	109.96
657.55	112.01
657.75	112.53
657.95	111.86
658.14	110.03
658.34	111.19
658.54	114.22
658.74	113.81
658.94	111.56
659.14	111.56
659.34	112.04
659.53	110.20
659.73	109.62
659.93	111.43
660.13	115.62
660.33	116.90
660.53	120.94
660.72	116.96
660.92	119.45
661.12	120.22
661.32	119.64
661.52	118.00
661.72	122.56
661.91	122.65
662.11	120.31
662.31	117.68
662.51	117.01
662.71	112.60
662.90	114.26
663.10	112.43
663.30	111.52
663.50	110.31
663.70	109.31
663.90	107.67
664.09	109.66
664.29	112.23
664.49	116.81
664.69	116.29
664.89	114.28
665.08	116.94
665.28	115.52
665.48	114.95
665.68	116.57
665.88	114.87
666.07	113.20
666.27	107.61
666.47	106.07
666.67	100.83
666.87	100.59
667.06	103.68
667.26	101.23
667.46	99.53
667.66	102.73
667.85	102.85
668.05	104.74
668.25	105.45
668.45	107.57
668.65	109.70
668.84	111.22
669.04	109.75
669.24	111.22
669.44	113.55
669.63	117.94
669.83	115.45
670.03	112.77
670.23	112.82
670.42	113.31
670.62	111.67
670.82	111.11
671.02	110.16
671.22	112.25
671.41	108.19
671.61	104.91
671.81	102.27
672.01	104.50
672.20	104.19
672.40	101.86
672.60	104.39
672.80	106.48
672.99	109.38
673.19	109.34
673.39	108.23
673.58	113.09
673.78	113.61
673.98	111.89
674.18	109.96
674.37	112.84
674.57	115.43
674.77	112.66
674.97	107.70
675.16	103.85
675.36	102.32
675.56	102.94
675.75	99.77
675.95	99.38
676.15	102.23
676.35	103.33
676.54	103.29
676.74	103.27
676.94	100.96
677.13	104.82
677.33	103.72
677.53	104.33
677.73	102.34
677.92	104.00
678.12	104.50
678.32	105.45
678.51	104.20
678.71	104.54
678.91	105.58
679.11	109.88
679.30	111.50
679.50	113.92
679.70	116.86
679.89	117.53
680.09	115.93
680.29	117.03
680.48	114.67
680.68	115.92
680.88	115.47
681.07	114.18
681.27	111.50
681.47	110.74
681.66	109.72
681.86	108.88
682.06	112.21
682.25	113.25
682.45	111.34
682.65	113.35
682.84	112.43
683.04	111.60
683.24	110.98
683.43	114.02
683.63	112.41
683.83	112.43
684.02	109.25
684.22	105.41
684.42	104.73
684.61	103.87
684.81	104.93
685.01	103.39
685.20	104.60
685.40	103.37
685.60	100.39
685.79	101.19
685.99	102.55
686.19	105.02
686.38	106.12
686.58	105.02
686.77	108.36
686.97	107.48
687.17	107.98
687.36	104.52
687.56	105.77
687.76	103.11
687.95	100.89
688.15	99.33
688.34	98.95
688.54	101.34
688.74	102.23
688.93	101.64
689.13	100.00
689.33	100.98
689.52	103.83
689.72	105.19
689.91	108.13
690.11	109.70
690.31	110.27
690.50	111.24
690.70	109.66
690.89	109.51
691.09	108.34
691.29	111.34
691.48	110.44
691.68	111.41
691.87	110.11
692.07	109.98
692.27	110.35
692.46	109.32
692.66	108.08
692.85	107.59
693.05	108.99
693.25	109.05
693.44	105.47
693.64	107.91
693.83	104.97
694.03	106.48
694.22	105.28
694.42	105.97
694.62	103.52
694.81	101.36
695.01	100.56
695.20	98.94
695.40	101.50
695.59	102.18
695.79	100.59
695.99	100.80
696.18	97.24
696.38	99.89
696.57	101.78
696.77	103.25
696.96	102.73
697.16	104.93
697.36	104.43
697.55	101.97
697.75	102.92
697.94	101.39
698.14	103.03
698.33	105.12
698.53	105.08
698.72	104.74
698.92	107.56
699.11	111.97
699.31	112.79
699.51	114.24
699.70	114.35
699.90	112.60
700.09	113.23
700.29	112.62
700.48	112.71
700.68	115.08
700.87	115.62
701.07	115.04
701.26	114.87
701.46	112.51
701.65	111.87
701.85	114.54
702.04	113.90
702.24	114.61
702.43	113.14
702.63	116.85
702.82	113.09
703.02	109.96
703.21	108.82
703.41	103.25
703.60	102.62
703.80	100.98
703.99	98.25
704.19	100.11
704.38	99.57
704.58	102.62
704.77	97.56
704.97	98.15
705.16	101.17
705.36	100.02
705.55	105.86
705.75	106.53
705.94	107.20
706.14	109.98
706.33	107.43
706.53	108.02
706.72	104.61
706.92	107.13
707.11	106.96
707.31	103.22
707.50	107.44
707.70	104.67
707.89	103.37
708.09	108.58
708.28	106.92
708.48	108.51
708.67	107.98
708.86	112.34
709.06	111.71
709.25	110.44
709.45	110.01
709.64	104.50
709.84	103.35
710.03	104.00
710.23	97.78
710.42	97.71
710.62	94.13
710.81	92.44
711.00	89.70
711.20	88.64
711.39	90.61
711.59	91.94
711.78	90.84
711.98	95.08
712.17	96.09
712.37	94.82
712.56	92.31
712.75	94.93
712.95	94.78
713.14	94.19
713.34	93.18
713.53	90.97
713.73	89.40
713.92	91.40
714.11	88.16
714.31	86.24
714.50	89.66
714.70	91.82
714.89	93.89
715.08	92.70
715.28	91.73
715.47	92.31
715.67	93.93
715.86	94.60
716.06	95.47
716.25	92.27
716.44	90.30
716.64	90.37
716.83	89.85
717.03	87.99
717.22	93.00
717.41	94.36
717.61	95.99
717.80	93.29
717.99	94.84
718.19	93.26
718.38	97.69
718.58	100.52
718.77	97.52
718.96	95.73
719.16	96.16
719.35	93.29
719.55	91.13
719.74	91.26
719.93	92.25
720.13	91.26
720.32	90.04
720.51	89.40
720.71	88.32
720.90	91.75
721.10	94.54
721.29	93.95
721.48	93.93
721.68	94.91
721.87	95.25
722.06	97.30
722.26	96.96
722.45	98.69
722.64	96.78
722.84	96.20
723.03	94.91
723.22	95.66
723.42	94.32
723.61	92.90
723.80	94.24
724.00	93.61
724.19	93.48
724.38	95.21
724.58	96.70
724.77	100.59
724.96	103.18
725.16	102.77
725.35	102.85
725.54	103.66
725.74	104.35
725.93	104.09
726.12	102.79
726.32	102.08
726.51	100.61
726.70	99.31
726.90	96.63
727.09	95.27
727.28	92.34
727.48	88.79
727.67	89.11
727.86	93.42
728.06	91.99
728.25	92.87
728.44	93.96
728.64	93.96
728.83	91.40
729.02	89.05
729.21	88.38
729.41	90.69
729.60	90.89
729.79	92.36
729.99	88.49
730.18	92.14
730.37	90.54
730.56	89.91
730.76	90.13
730.95	90.48
731.14	92.27
731.34	92.10
731.53	91.51
731.72	89.22
731.91	87.02
732.11	88.53
732.30	85.40
732.49	84.08
732.69	84.28
732.88	81.34
733.07	85.31
733.26	82.25
733.46	80.50
733.65	81.79
733.84	85.07
734.03	84.58
734.23	86.35
734.42	83.91
734.61	84.80
734.80	83.02
735.00	85.25
735.19	81.96
735.38	83.61
735.57	87.00
735.77	86.76
735.96	86.20
736.15	87.08
736.34	81.23
736.54	83.74
736.73	84.26
736.92	81.32
737.11	82.46
737.31	84.04
737.50	83.50
737.69	80.32
737.88	77.06
738.07	74.75
738.27	76.67
738.46	80.63
738.65	79.46
738.84	77.49
739.04	79.26
739.23	77.47
739.42	74.77
739.61	78.18
739.80	80.91
740.00	82.29
740.19	83.97
740.38	81.38
740.57	81.10
740.76	83.61
740.96	84.10
741.15	86.85
741.34	86.98
741.53	89.14
741.72	86.96
741.92	84.58
742.11	84.45
742.30	81.73
742.49	82.12
742.68	79.41
742.88	77.21
743.07	77.49
743.26	76.89
743.45	75.64
743.64	78.44
743.84	76.82
744.03	77.66
744.22	77.77
744.41	80.08
744.60	79.61
744.79	79.28
744.99	79.65
745.18	79.22
745.37	78.49
745.56	77.36
745.75	73.69
745.94	76.45
746.14	76.18
746.33	73.91
746.52	74.84
746.71	71.53
746.90	71.10
747.09	70.88
747.28	71.06
747.48	70.60
747.67	72.98
747.86	72.05
748.05	70.95
748.24	69.56
748.43	71.70
748.62	71.68
748.82	72.63
749.01	76.18
749.20	73.82
749.39	72.67
749.58	71.62
749.77	69.04
749.96	69.17
750.16	66.48
750.35	68.50
750.54	67.15
750.73	66.65
750.92	70.88
751.11	66.41
751.30	66.07
751.49	66.99
751.68	67.29
751.88	68.64
752.07	68.85
752.26	69.39
752.45	69.05
752.64	70.36
752.83	69.69
753.02	66.89
753.21	68.18
753.40	71.64
753.60	73.24
753.79	71.94
753.98	71.88
754.17	73.11
754.36	75.94
754.55	73.08
754.74	71.05
754.93	71.29
755.12	71.87
755.31	70.95
755.50	67.64
755.70	67.53
755.89	69.17
756.08	66.97
756.27	63.60
756.46	62.03
756.65	64.68
756.84	65.83
757.03	64.92
757.22	62.89
757.41	63.75
757.60	65.44
757.79	62.17
757.98	60.71
758.17	62.65
758.36	64.42
758.56	62.95
758.75	61.92
758.94	60.79
759.13	60.68
759.32	65.00
759.51	64.36
759.70	63.08
759.89	64.88
760.08	65.26
760.27	63.82
760.46	64.42
760.65	65.78
760.84	67.19
761.03	66.97
761.22	69.41
761.41	65.98
761.60	68.64
761.79	67.43
761.98	69.31
762.17	69.80
762.36	70.88
762.55	67.56
762.74	67.62
762.93	67.42
763.12	68.76
763.31	68.09
763.50	69.61
763.69	66.35
763.88	67.58
764.07	65.26
764.26	62.17
764.45	62.71
764.64	65.46
764.83	64.64
765.02	63.38
765.21	62.18
765.40	58.83
765.59	55.76
765.78	57.96
765.97	57.99
766.16	55.54
766.35	56.45
766.54	55.57
766.73	52.06
766.92	51.27
767.11	52.67
767.30	53.95
767.49	54.59
767.68	56.26
767.87	53.66
768.06	52.91
768.25	55.56
768.44	55.52
768.63	56.17
768.82	60.08
769.01	63.24
769.20	62.89
769.39	64.01
769.58	64.05
769.77	63.64
769.96	67.19
770.15	68.87
770.34	69.17
770.53	69.78
770.72	69.98
770.91	69.97
771.10	66.09
771.29	64.88
771.47	64.10
771.66	66.97
771.85	67.68
772.04	63.38
772.23	64.16
772.42	65.14
772.61	65.91
772.80	63.36
772.99	60.99
773.18	59.54
773.37	58.61
773.56	55.82
773.75	53.94
773.94	51.94
774.13	50.88
774.31	50.77
774.50	48.11
774.69	45.76
774.88	47.75
775.07	52.04
775.26	55.69
775.45	55.48
775.64	57.59
775.83	57.34
776.02	59.47
776.21	61.16
776.40	59.99
776.58	60.47
776.77	61.42
776.96	61.83
777.15	59.00
777.34	55.74
777.53	54.08
777.72	53.90
777.91	51.31
778.10	49.52
778.28	49.95
778.47	49.10
778.66	50.83
778.85	53.73
779.04	51.11
779.23	47.62
779.42	45.13
779.61	45.58
779.79	43.53
779.98	45.99
780.17	44.39
780.36	41.95
780.55	43.16
780.74	40.68
780.93	36.03
781.12	37.79
781.30	39.36
781.49	42.93
781.68	42.06
781.87	44.33
782.06	43.68
782.25	46.69
782.44	52.80
782.62	53.99
782.81	52.19
783.00	51.83
783.19	51.70
783.38	53.79
783.57	52.09
783.75	53.36
783.94	51.07
784.13	52.28
784.32	49.26
784.51	43.70
784.70	39.53
784.88	40.96
785.07	43.81
785.26	43.96
785.45	41.85
785.64	45.11
785.83	44.09
786.01	43.79
786.20	41.52
786.39	43.90
786.58	47.55
786.77	47.46
786.95	48.44
787.14	46.86
787.33	48.72
787.52	47.96
787.71	48.76
787.90	50.14
788.08	51.91
788.27	52.20
788.46	51.94
788.65	50.25
788.84	49.15
789.02	45.19
789.21	48.09
789.40	45.61
789.59	47.64
789.77	45.30
789.96	42.62
790.15	41.48
790.34	39.40
790.53	39.58
790.71	38.74
790.90	41.35
791.09	46.62
791.28	43.79
791.46	42.43
791.65	41.37
791.84	39.94
792.03	40.85
792.22	42.11
792.40	44.65
792.59	45.84
792.78	47.85
792.97	50.14
793.15	47.35
793.34	46.62
793.53	47.16
793.72	49.02
793.90	49.60
794.09	52.30
794.28	51.65
794.47	51.14
794.65	48.89
794.84	46.68
795.03	44.27
795.22	45.78
795.40	49.00
795.59	48.69
795.78	48.41
795.97	50.55
796.15	49.19
796.34	45.09
796.53	45.82
796.71	41.91
796.90	42.41
797.09	43.29
797.28	41.15
797.46	40.44
797.65	38.56
797.84	37.40
798.02	37.14
798.21	37.40
798.40	40.18
798.59	40.70
798.77	44.74
798.96	47.36
799.15	44.29
799.33	44.74
799.52	44.25
799.71	43.86
799.90	43.19
800.08	42.04
800.27	43.10
800.46	45.19
800.64	43.90
800.83	44.39
801.02	41.91
801.20	45.46
801.39	49.23
801.58	48.91
801.76	52.04
801.95	52.54
802.14	51.20
802.32	50.40
802.51	50.62
802.70	49.99
802.88	49.13
803.07	51.76
803.26	50.62
803.44	46.88
803.63	45.04
803.82	42.36
804.00	43.16
804.19	45.71
804.38	47.16
804.56	43.36
804.75	45.99
804.94	47.72
805.12	45.61
805.31	46.51
805.50	47.23
805.68	46.17
805.87	50.18
806.06	49.67
806.24	46.88
806.43	43.51
806.62	45.43
806.80	43.21
806.99	42.56
807.17	43.36
807.36	40.62
807.55	41.00
807.73	42.50
807.92	39.94
808.11	40.01
808.29	39.64
808.48	40.87
808.66	42.32
808.85	41.95
809.04	38.82
809.22	37.79
809.41	39.47
809.59	41.59
809.78	42.86
809.97	42.62
810.15	40.20
810.34	41.96
810.53	40.59
810.71	39.97
810.90	39.45
811.08	41.78
811.27	38.09
811.45	38.86
811.64	35.21
811.83	34.96
812.01	34.89
812.20	37.42
812.38	38.97
812.57	40.23
812.76	38.67
812.94	37.98
813.13	38.78
813.31	41.93
813.50	38.02
813.68	36.42
813.87	35.99
814.06	36.49
814.24	33.59
814.43	30.85
814.61	32.82
814.80	34.39
814.98	35.52
815.17	34.16
815.36	32.00
815.54	32.21
815.73	34.41
815.91	33.14
816.10	32.15
816.28	33.38
816.47	32.19
816.65	29.70
816.84	29.42
817.03	29.03
817.21	29.21
817.40	30.61
817.58	30.03
817.77	28.65
817.95	26.36
818.14	29.29
818.32	29.90
818.51	31.48
818.69	31.67
818.88	30.12
819.06	31.09
819.25	29.53
819.43	28.89
819.62	28.89
819.80	28.41
819.99	28.65
820.18	23.48
820.36	23.24
820.55	23.42
820.73	23.18
820.92	22.88
821.10	18.04
821.29	18.80
821.47	18.25
821.66	21.34
821.84	23.48
822.03	23.07
822.21	26.36
822.40	28.02
822.58	28.02
822.77	29.58
822.95	30.18
823.14	33.85
823.32	34.50
823.50	35.78
823.69	36.08
823.87	33.83
824.06	36.32
824.24	36.45
824.43	33.61
824.61	33.64
824.80	32.84
824.98	29.57
825.17	30.20
825.35	28.50
825.54	25.75
825.72	25.71
825.91	29.92
826.09	29.30
826.28	28.13
826.46	28.56
826.64	28.28
826.83	28.24
827.01	32.88
827.20	28.91
827.38	30.78
827.57	30.46
827.75	26.92
827.94	23.42
828.12	22.21
828.31	20.61
828.49	21.43
828.67	19.27
828.86	19.51
829.04	19.10
829.23	23.66
829.41	26.60
829.60	31.78
829.78	36.45
829.96	35.75
830.15	36.66
830.33	37.31
830.52	37.12
830.70	34.65
830.88	35.21
831.07	34.59
831.25	32.38
831.44	25.86
831.62	24.30
831.81	20.65
831.99	21.80
832.17	23.61
832.36	24.17
832.54	24.48
832.73	28.60
832.91	27.55
833.09	25.53
833.28	24.05
833.46	28.50
833.65	29.23
833.83	29.97
834.01	31.45
834.20	31.24
834.38	32.19
834.56	31.76
834.75	32.04
834.93	31.93
835.12	32.58
835.30	33.38
835.48	28.19
835.67	28.41
835.85	28.28
836.03	25.97
836.22	24.82
836.40	23.92
836.59	19.77
836.77	19.03
836.95	19.62
837.14	19.23
837.32	20.14
837.50	23.22
837.69	18.88
837.87	17.00
838.05	14.73
838.24	11.80
838.42	11.34
838.60	14.97
838.79	15.15
838.97	14.63
839.15	15.79
839.34	14.48
839.52	12.46
839.70	13.67
839.89	17.26
840.07	18.95
840.25	19.21
840.44	19.27
840.62	19.20
840.80	17.80
840.99	14.17
841.17	14.43
841.35	14.76
841.54	17.05
841.72	16.55
841.90	12.62
842.09	14.88
842.27	18.26
842.45	19.64
842.64	20.52
842.82	19.81
843.00	22.62
843.19	22.47
843.37	24.82
843.55	22.32
843.73	21.28
843.92	21.47
844.10	18.32
844.28	13.96
844.47	12.46
844.65	9.76
844.83	12.42
845.01	12.42
845.20	12.79
845.38	12.59
845.56	14.32
845.75	16.38
845.93	18.32
846.11	18.69
846.29	20.76
846.48	23.31
846.66	24.48
846.84	20.85
847.02	21.08
847.21	19.60
847.39	18.13
847.57	16.46
847.76	18.00
847.94	15.45
848.12	15.43
848.30	17.46
848.49	14.60
848.67	15.77
848.85	18.49
849.03	15.49
849.22	14.48
849.40	13.76
849.58	12.85
849.76	9.63
849.95	11.43
850.13	11.17
850.31	11.82
850.49	17.48
850.67	16.23
850.86	16.81
851.04	21.26
851.22	22.77
851.40	25.38
851.59	30.27
851.77	30.51
851.95	30.68
852.13	31.30
852.31	29.96
852.50	25.54
852.68	23.98
852.86	21.35
853.04	19.05
853.23	17.85
853.41	16.22
853.59	21.73
853.77	22.79
853.95	20.29
854.14	22.84
854.32	19.96
854.50	18.77
854.68	21.13
854.86	24.30
855.04	23.66
855.23	26.90
855.41	28.49
855.59	20.29
855.77	20.44
855.95	21.19
856.14	20.57
856.32	23.25
856.50	24.84
856.68	21.95
856.86	22.55
857.04	21.99
857.23	17.41
857.41	15.81
857.59	14.82
857.77	14.32
857.95	14.63
858.13	14.21
858.32	14.60
858.50	13.81
858.68	14.26
858.86	11.69
859.04	10.43
859.22	11.84
859.41	11.41
859.59	13.42
859.77	12.81
859.95	13.98
860.13	13.85
860.31	14.48
860.49	13.27
860.68	16.83
860.86	18.73
861.04	19.70
861.22	17.41
861.40	17.63
861.58	16.79
861.76	15.81
861.94	15.15
862.13	13.70
862.31	10.82
862.49	11.38
862.67	8.56
862.85	6.31
863.03	4.88
863.21	4.80
863.39	4.47
863.57	2.89
863.76	5.77
863.94	7.19
864.12	10.24
864.30	13.09
864.48	13.74
864.66	15.06
864.84	14.13
865.02	17.28
865.20	19.16
865.38	19.73
865.57	21.62
865.75	19.87
865.93	18.97
866.11	16.12
866.29	14.86
866.47	15.86
866.65	15.10
866.83	18.54
867.01	15.27
867.19	14.06
867.37	12.08
867.55	10.76
867.73	11.00
867.92	9.98
868.10	10.72
868.28	12.29
868.46	12.10
868.64	9.03
868.82	7.34
869.00	7.76
869.18	11.80
869.36	11.79
869.54	13.63
869.72	15.68
869.90	13.63
870.08	10.93
870.26	9.35
870.44	4.17
870.62	11.39
870.80	11.73
870.98	12.68
871.16	9.53
871.34	10.17
871.53	8.60
871.71	4.86
871.89	7.24
872.07	11.13
872.25	13.65
872.43	16.25
872.61	11.19
872.79	11.80
872.97	11.45
873.15	11.84
873.33	10.69
873.51	9.63
873.69	15.30
873.87	17.30
874.05	15.75
874.23	14.26
874.41	15.64
874.59	16.22
874.77	14.56
874.95	14.54
875.13	15.19
875.31	16.77
875.49	16.98
875.67	13.09
875.85	10.22
876.03	9.94
876.21	8.42
876.39	9.14
876.57	11.38
876.75	11.65
876.93	13.83
877.11	14.09
877.29	15.40
877.47	18.88
877.65	22.17
877.82	25.08
878.00	25.82
878.18	27.59
878.36	25.41
878.54	23.91
878.72	23.87
878.90	22.92
879.08	20.89
879.26	17.71
879.44	12.92
879.62	11.69
879.80	8.06
879.98	6.65
880.16	7.04
880.34	8.68
880.52	6.53
880.70	4.78
880.88	5.77
881.06	8.21
881.24	9.57
881.42	13.20
881.59	11.97
881.77	13.07
881.95	12.14
882.13	9.10
882.31	10.48
882.49	12.12
882.67	13.76
882.85	12.25
883.03	12.90
883.21	13.13
883.39	12.79
883.57	12.94
883.75	14.28
883.92	16.77
884.10	18.26
884.28	16.57
884.46	14.91
884.64	14.63
884.82	17.37
885.00	17.48
885.18	17.82
885.36	15.60
885.54	14.91
885.71	14.30
885.89	13.24
886.07	14.28
886.25	17.85
886.43	18.93
886.61	18.13
886.79	17.98
886.97	17.20
887.15	16.51
887.32	18.02
887.50	16.31
887.68	15.86
887.86	15.92
888.04	15.94
888.22	15.30
888.40	14.88
888.57	16.51
888.75	12.79
888.93	13.29
889.11	14.13
889.29	13.42
889.47	15.30
889.65	13.00
889.82	15.42
890.00	12.40
890.18	9.51
890.36	11.95
890.54	10.80
890.72	10.80
890.90	10.97
891.07	7.86
891.25	7.63
891.43	7.43
891.61	10.91
891.79	8.06
891.97	8.68
892.14	7.58
892.32	4.36
892.50	4.54
892.68	6.40
892.86	1.71
893.03	6.35
893.21	9.77
893.39	5.23
893.57	5.79
893.75	6.14
893.93	4.34
894.10	7.11
894.28	7.26
894.46	8.28
894.64	6.09
894.82	11.28
894.99	8.56
895.17	3.95
895.35	7.34
895.53	9.07
895.71	6.31
895.88	7.32
896.06	3.03
896.24	5.68
896.42	4.30
896.59	6.63
896.77	5.44
896.95	6.89
897.13	6.07
897.31	6.29
897.48	4.47
897.66	10.24
897.84	11.51
898.02	13.20
898.19	9.68
898.37	8.02
898.55	8.90
898.73	7.69
898.91	3.91
899.08	3.43
899.26	3.97
899.44	4.82
899.62	2.16
899.79	3.56
899.97	3.63
900.15	4.34
900.33	5.88
900.50	2.70
900.68	0.30
900.86	6.50
901.04	9.14
901.21	12.05
901.39	9.51
901.57	7.37
901.74	6.67
901.92	7.97
902.10	9.96
902.28	10.74
902.45	10.65
902.63	12.77
902.81	10.54
902.99	10.65
903.16	6.85
903.34	6.57
903.52	8.88
903.69	8.84
903.87	6.81
904.05	7.34
904.22	8.14
904.40	8.86
904.58	8.30
904.76	8.55
904.93	8.43
905.11	7.88
905.29	11.62
905.46	12.27
905.64	12.83
905.82	12.81
905.99	9.94
906.17	8.58
906.35	10.37
906.53	10.15
906.70	8.40
906.88	9.16
907.06	8.30
907.23	4.19
907.41	-0.43
907.59	-1.92
907.76	-3.05
907.94	0.48
908.12	0.67
908.29	-0.35
908.47	0.11
908.65	-2.31
908.82	-4.60
909.00	-5.01
909.18	-3.59
909.35	-2.22
909.53	-4.38
909.71	-3.93
909.88	-5.70
910.06	-4.02
910.23	-2.46
910.41	-0.95
910.59	2.48
910.76	3.95
910.94	8.90
911.12	7.97
911.29	11.54
911.47	12.66
911.65	13.63
911.82	11.80
912.00	10.17
912.17	8.88
912.35	7.91
912.53	7.63
912.70	7.93
912.88	5.01
913.06	6.85
913.23	3.39
913.41	4.11
913.58	5.72
913.76	6.96
913.94	7.00
914.11	6.96
914.29	4.49
914.46	4.80
914.64	8.75
914.82	10.11
914.99	10.65
915.17	13.61
915.34	15.77
915.52	13.59
915.70	15.01
915.87	15.86
916.05	14.93
916.22	16.87
916.40	16.68
916.57	11.28
916.75	10.50
916.93	7.69
917.10	7.13
917.28	3.72
917.45	4.06
917.63	1.95
917.80	-1.32
917.98	-1.25
918.16	0.67
918.33	-2.16
918.51	-1.84
918.68	-1.27
918.86	1.56
919.03	-0.07
919.21	1.95
919.39	3.70
919.56	3.15
919.74	3.46
919.91	3.43
920.09	-0.71
920.26	0.54
920.44	1.10
920.61	-4.23
920.79	-7.07
920.96	-5.40
921.14	-4.39
921.31	-3.70
921.49	-1.17
921.67	2.76
921.84	4.45
922.02	11.06
922.19	12.57
922.37	13.89
922.54	17.15
922.72	16.23
922.89	15.90
923.07	12.57
923.24	12.05
923.42	9.25
923.59	7.41
923.77	7.26
923.94	0.13
924.12	-1.95
924.29	-1.30
924.47	0.43
924.64	5.12
924.82	6.87
924.99	10.98
925.17	10.35
925.34	12.27
925.52	11.00
925.69	9.12
925.87	12.16
926.04	14.91
926.22	13.83
926.39	9.48
926.57	7.58
926.74	7.89
926.91	6.52
927.09	4.36
927.26	3.13
927.44	4.41
927.61	5.23
927.79	4.90
927.96	3.95
928.14	2.55
928.31	8.12
928.49	9.22
928.66	9.25
928.84	8.66
929.01	9.09
929.18	8.73
929.36	9.96
929.53	11.71
929.71	11.65
929.88	12.47
930.06	13.46
930.23	12.85
930.41	8.58
930.58	5.83
930.75	6.13
930.93	6.70
931.10	7.67
931.28	4.43
931.45	2.83
931.63	5.60
931.80	4.80
931.97	3.93
932.15	3.18
932.32	4.82
932.50	4.64
932.67	4.58
932.84	2.90
933.02	4.95
933.19	6.81
933.37	5.53
933.54	2.94
933.71	6.01
933.89	5.55
934.06	3.41
934.24	3.11
934.41	4.45
934.58	3.95
934.76	7.28
934.93	6.09
935.11	5.47
935.28	4.38
935.45	4.30
935.63	2.03
935.80	2.40
935.98	6.01
936.15	6.67
936.32	4.24
936.50	6.35
936.67	4.69
936.84	3.22
937.02	3.72
937.19	4.88
937.36	6.55
937.54	2.44
937.71	3.28
937.89	2.31
938.06	3.00
938.23	3.35
938.41	1.88
938.58	3.54
938.75	4.21
938.93	5.60
939.10	6.76
939.27	6.50
939.45	10.24
939.62	10.04
939.79	7.45
939.97	6.09
940.14	6.14
940.31	4.65
940.49	2.83
940.66	4.64
940.83	4.82
941.01	6.68
941.18	5.68
941.35	5.49
941.53	8.15
941.70	10.72
941.87	11.90
942.05	10.18
942.22	10.37
942.39	12.53
942.57	11.54
942.74	10.78
942.91	6.52
943.08	4.64
943.26	4.00
943.43	2.07
943.60	0.86
943.78	2.87
943.95	5.53
944.12	6.72
944.29	7.69
944.47	5.98
944.64	5.36
944.81	7.97
944.99	8.30
945.16	7.93
945.33	5.29
945.50	5.27
945.68	1.95
945.85	-0.50
946.02	-1.47
946.20	-3.84
946.37	-2.44
946.54	-1.17
946.71	0.89
946.89	4.26
947.06	4.88
947.23	7.41
947.40	8.69
947.58	10.52
947.75	13.03
947.92	14.19
948.09	13.11
948.27	12.86
948.44	11.43
948.61	9.59
948.78	5.77
948.96	2.90
949.13	3.20
949.30	1.30
949.47	-1.14
949.65	-3.50
949.82	-2.81
949.99	-1.51
950.16	-1.88
950.33	-5.12
950.51	-6.98
950.68	-5.55
950.85	-5.08
951.02	-4.38
951.20	0.22
951.37	3.69
951.54	3.80
951.71	3.13
951.88	1.55
952.06	0.58
952.23	4.78
952.40	5.60
952.57	5.85
952.74	9.01
952.92	4.39
953.09	1.01
953.26	-2.70
953.43	-1.97
953.60	-5.77
953.77	-3.28
953.95	-2.38
954.12	-4.10
954.29	-5.81
954.46	-5.29
954.63	-5.40
954.81	-1.60
954.98	-2.25
955.15	0.78
955.32	1.62
955.49	2.90
955.66	1.71
955.84	2.51
956.01	3.52
956.18	4.49
956.35	4.71
956.52	1.56
956.69	-1.17
956.87	-1.41
957.04	-1.55
957.21	-1.71
957.38	-1.04
957.55	-0.41
957.72	2.59
957.89	2.29
958.07	0.32
958.24	-1.95
958.41	0.00
958.58	0.73
958.75	-0.07
958.92	-1.56
959.09	-1.53
959.26	-0.41
959.44	-1.55
959.61	-6.70
959.78	-4.97
959.95	-4.58
960.12	-3.30
960.29	-1.88
960.46	-5.34
960.63	-4.30
960.81	-7.26
960.98	-7.47
961.15	-7.97
961.32	-6.50
961.49	-4.86
961.66	-6.52
961.83	-3.05
962.00	-3.18
962.17	-7.84
962.34	-1.28
962.52	-2.31
962.69	2.20
962.86	-1.38
963.03	-2.14
963.20	0.07
963.37	0.91
963.54	1.53
963.71	2.18
963.88	3.22
964.05	5.77
964.22	1.62
964.39	3.98
964.56	2.55
964.74	5.66
964.91	5.40
965.08	1.19
965.25	-0.45
965.42	-0.54
965.59	-3.09
965.76	-6.31
965.93	-5.14
966.10	-2.33
966.27	-4.00
966.44	-2.59
966.61	1.19
966.78	1.73
966.95	2.29
967.12	2.70
967.29	1.95
967.46	3.43
967.63	7.11
967.80	5.12
967.97	5.25
968.14	4.82
968.32	1.27
968.49	-0.93
968.66	0.95
968.83	0.37
969.00	1.90
969.17	2.55
969.34	0.78
969.51	-3.84
969.68	0.45
969.85	-0.09
970.02	-0.22
970.19	1.45
970.36	1.84
970.53	1.27
970.70	1.97
970.87	-2.14
971.04	-3.43
971.21	-2.31
971.38	-0.69
971.55	-1.58
971.72	-1.17
971.89	-0.74
972.06	-0.73
972.23	-0.97
972.40	-3.13
972.57	-3.50
972.74	1.15
972.91	2.96
973.07	3.78
973.24	5.14
973.41	2.18
973.58	0.73
973.75	0.80
973.92	2.68
974.09	5.12
974.26	8.97
974.43	10.15
974.60	8.40
974.77	8.08
974.94	7.26
975.11	10.26
975.28	11.25
975.45	10.00
975.62	10.00
975.79	7.04
975.96	4.02
976.13	1.08
976.30	1.02
976.47	-0.99
976.64	-3.48
976.80	-3.07
976.97	-6.93
977.14	-8.27
977.31	-5.49
977.48	-4.62
977.65	-2.23
977.82	-1.21
977.99	1.12
978.16	0.80
978.33	1.21
978.50	0.67
978.67	1.64
978.83	4.47
979.00	4.97
979.17	3.98
979.34	4.00
979.51	3.33
979.68	2.10
979.85	0.07
980.02	0.06
980.19	2.25
980.36	4.06
980.52	0.06
980.69	-4.62
980.86	-1.69
981.03	-3.97
981.20	-4.88
981.37	-4.34
981.54	-5.72
981.71	-6.72
981.88	-7.39
982.04	-10.15
982.21	-10.52
982.38	-7.21
982.55	-5.40
982.72	-6.05
982.89	-4.77
983.06	-6.35
983.22	-5.23
983.39	-4.02
983.56	-1.30
983.73	-2.07
983.90	-0.71
984.07	-2.70
984.24	-1.62
984.40	-0.95
984.57	1.25
984.74	3.07
984.91	5.85
985.08	4.02
985.25	4.62
985.41	3.22
985.58	5.36
985.75	8.51
985.92	14.65
986.09	10.33
986.26	10.78
986.42	7.41
986.59	6.35
986.76	6.68
986.93	5.29
987.10	5.38
987.27	4.00
987.43	1.58
987.60	-0.73
987.77	-1.88
987.94	2.90
988.11	2.14
988.27	-2.92
988.44	-2.22
988.61	-2.51
988.78	-1.64
988.95	-0.13
989.11	2.14
989.28	2.89
989.45	1.60
989.62	3.52
989.79	3.65
989.95	2.49
990.12	6.74
990.29	6.11
990.46	8.08
990.62	9.40
990.79	7.61
990.96	7.58
991.13	8.17
991.30	10.87
991.46	6.33
991.63	6.55
991.80	8.53
991.97	9.01
992.13	10.78
992.30	7.76
992.47	7.43
992.64	5.60
992.80	5.21
992.97	4.88
993.14	5.06
993.31	5.12
993.47	1.88
993.64	1.15
993.81	3.44
993.98	-0.82
994.14	-0.89
994.31	-1.40
994.48	-1.14
994.64	-2.63
994.81	-1.36
994.98	-3.54
995.15	0.48
995.31	2.16
995.48	3.15
995.65	1.15
995.82	3.61
995.98	5.03
996.15	7.34
996.32	9.44
996.48	12.36
996.65	13.48
996.82	13.65
996.99	8.49
997.15	8.12
997.32	7.21
997.49	8.51
997.65	9.64
997.82	9.09
997.99	6.85
998.15	6.26
998.32	4.54
998.49	3.09
998.65	6.63
998.82	4.30
998.99	4.32
999.15	3.00
999.32	0.93
999.49	-0.07
999.65	-1.95
999.82	-5.08
999.99	-3.54
1000.15	-4.41
1000.32	-4.75
1000.49	-7.37
1000.65	-3.50
1000.82	-3.87
1000.99	-2.63
1001.15	-1.19
1001.32	-2.35
1001.49	-0.20
1001.65	0.84
1001.82	-1.66
1001.99	-0.22
1002.15	1.14
1002.32	-0.13
1002.49	0.07
1002.65	-0.32
1002.82	3.30
1002.99	0.97
1003.15	1.75
1003.32	-0.48
1003.48	0.41
1003.65	3.82
1003.82	1.15
1003.98	-1.02
1004.15	-0.97
1004.32	1.45
1004.48	2.90
1004.65	-0.45
1004.81	0.71
1004.98	-0.48
1005.15	0.32
1005.31	-0.91
1005.48	-2.09
1005.64	-0.88
1005.81	1.10
1005.98	1.01
1006.14	-3.44
1006.31	-3.74
1006.47	-3.93
1006.64	-4.51
1006.81	-2.55
1006.97	-0.60
1007.14	3.82
1007.30	3.72
1007.47	4.24
1007.63	1.28
1007.80	1.17
1007.97	2.31
1008.13	3.20
1008.30	3.02
1008.46	6.94
1008.63	6.18
1008.79	7.43
1008.96	3.97
1009.13	0.45
1009.29	0.63
1009.46	1.69
1009.62	3.03
1009.79	1.23
1009.95	2.33
1010.12	4.21
1010.28	-0.45
1010.45	-1.43
1010.62	-2.51
1010.78	-0.91
1010.95	2.36
1011.11	2.92
1011.28	5.62
1011.44	3.95
1011.61	5.99
1011.77	4.58
1011.94	2.55
1012.10	5.46
1012.27	7.22
1012.43	6.14
1012.60	5.40
1012.76	2.18
1012.93	-0.78
1013.10	-4.56
1013.26	-2.89
1013.43	-1.86
1013.59	-1.69
1013.76	-1.82
1013.92	-4.06
1014.09	-5.47
1014.25	-7.91
1014.42	-7.26
1014.58	-4.15
1014.75	-3.13
1014.91	-4.47
1015.08	-3.59
1015.24	-3.37
1015.41	-6.01
1015.57	-2.27
1015.73	-2.03
1015.90	-0.20
1016.06	1.90
1016.23	2.72
1016.39	0.84
1016.56	3.91
1016.72	7.30
1016.89	6.37
1017.05	6.87
1017.22	9.40
1017.38	9.40
1017.55	11.62
1017.71	12.21
1017.88	10.56
1018.04	10.98
1018.21	11.58
1018.37	11.82
1018.53	9.76
1018.70	10.31
1018.86	9.59
1019.03	7.60
1019.19	4.93
1019.36	5.96
1019.52	4.11
1019.69	5.88
1019.85	4.82
1020.01	4.15
1020.18	2.70
1020.34	5.47
1020.51	4.30
1020.67	2.22
1020.84	4.82
1021.00	5.79
1021.16	5.68
1021.33	5.66
1021.49	5.59
1021.66	6.52
1021.82	6.48
1021.98	6.63
1022.15	7.37
1022.31	10.46
1022.48	8.23
1022.64	5.77
1022.80	5.96
1022.97	3.65
1023.13	3.67
1023.30	4.00
1023.46	5.14
1023.62	6.98
1023.79	6.67
1023.95	6.50
1024.12	4.99
1024.28	11.43
1024.44	14.21
1024.61	14.67
1024.77	14.60
1024.93	16.12
1025.10	16.81
1025.26	14.67
1025.43	13.09
1025.59	12.40
1025.75	10.69
1025.92	12.44
1026.08	9.87
1026.24	8.10
1026.41	7.50
1026.57	7.75
1026.73	6.89
1026.90	8.01
1027.06	7.54
1027.23	7.78
1027.39	7.43
1027.55	4.43
1027.72	3.52
1027.88	5.83
1028.04	2.70
1028.21	2.85
1028.37	1.68
1028.53	0.73
1028.70	-2.33
1028.86	-4.38
1029.02	-3.31
1029.19	-2.27
1029.35	1.88
1029.51	1.56
1029.67	-0.34
1029.84	3.44
1030.00	3.54
1030.16	3.11
1030.33	4.64
1030.49	6.11
1030.65	7.21
1030.82	7.67
1030.98	4.88
1031.14	4.75
1031.31	2.98
1031.47	2.55
1031.63	1.17
1031.79	0.82
1031.96	4.23
1032.12	2.36
1032.28	3.72
1032.45	7.11
1032.61	6.27
1032.77	7.84
1032.93	6.44
1033.10	5.34
1033.26	4.62
1033.42	6.53
1033.58	8.27
1033.75	6.98
1033.91	4.84
1034.07	4.56
1034.24	3.87
1034.40	3.05
1034.56	4.21
1034.72	6.33
1034.89	6.01
1035.05	8.51
1035.21	5.60
1035.37	3.74
1035.54	3.85
1035.70	7.17
1035.86	4.73
1036.02	1.17
1036.19	3.57
1036.35	4.95
1036.51	1.66
1036.67	4.41
1036.83	2.07
1037.00	1.64
1037.16	-0.58
1037.32	-0.73
1037.48	0.91
1037.65	0.15
1037.81	2.27
1037.97	4.23
1038.13	3.91
1038.29	5.62
1038.46	6.46
1038.62	7.04
1038.78	7.93
1038.94	10.13
1039.10	9.87
1039.27	9.12
1039.43	9.74
1039.59	6.70
1039.75	3.54
1039.91	2.03
1040.08	3.35
1040.24	1.99
1040.40	4.06
1040.56	5.49
1040.72	5.55
1040.89	8.08
1041.05	6.40
1041.21	7.52
1041.37	10.04
1041.53	10.04
1041.69	11.06
1041.86	7.91
1042.02	7.52
1042.18	5.05
1042.34	4.56
1042.50	4.28
1042.66	0.78
1042.83	2.92
1042.99	2.92
1043.15	0.97
1043.31	1.81
1043.47	-0.52
1043.63	0.34
1043.79	0.56
1043.96	-2.77
1044.12	-2.72
1044.28	-2.18
1044.44	-3.63
1044.60	-5.12
1044.76	-6.05
1044.92	-3.82
1045.09	-5.16
1045.25	-4.62
1045.41	-3.30
1045.57	-2.23
1045.73	-0.06
1045.89	-0.60
1046.05	-1.04
1046.21	7.17
1046.38	20.48
1046.54	-12.08
1046.70	-1.02
1046.86	8.81
>>>>>End Processed Spectral Data<<<<<
