SpectraSuite Data File
++++++++++++++++++++++++++++++++++++
Date: Mon May 06 13:50:22 CDT 2013
User: Students
Dark Spectrum Present: Yes
Reference Spectrum Present: Yes
Number of Sampled Component Spectra: 1
Spectrometers: USB4H00887
Integration Time (usec): 100000 (USB4H00887)
Spectra Averaged: 10 (USB4H00887)
Boxcar Smoothing: 5 (USB4H00887)
Correct for Electrical Dark: No (USB4H00887)
Strobe/Lamp Enabled: No (USB4H00887)
Correct for Detector Non-linearity: No (USB4H00887)
Correct for Stray Light: No (USB4H00887)
Number of Pixels in Processed Spectrum: 3648
>>>>>Begin Processed Spectral Data<<<<<
345.83	-24.99
346.05	-24.99
346.26	-24.99
346.48	7.58
346.70	-19.66
346.92	-6.83
347.14	-7.35
347.35	-4.36
347.57	-2.68
347.79	-5.47
348.01	-5.25
348.23	-5.44
348.44	-5.10
348.66	-6.63
348.88	-3.69
349.10	-7.02
349.32	-6.46
349.53	-3.13
349.75	-1.94
349.97	2.01
350.19	5.68
350.41	8.82
350.62	9.20
350.84	9.10
351.06	9.38
351.28	11.52
351.50	13.98
351.71	13.13
351.93	12.70
352.15	12.18
352.37	7.04
352.58	6.22
352.80	7.58
353.02	8.66
353.24	8.36
353.46	6.24
353.67	0.56
353.89	-0.91
354.11	0.32
354.33	1.51
354.54	1.23
354.76	2.18
354.98	3.70
355.20	-0.69
355.41	-2.05
355.63	1.01
355.85	1.99
356.07	3.46
356.28	3.26
356.50	0.37
356.72	0.32
356.94	-1.84
357.15	0.04
357.37	-0.17
357.59	3.05
357.81	1.73
358.02	-1.92
358.24	1.38
358.46	2.59
358.68	2.96
358.89	6.40
359.11	4.93
359.33	9.01
359.55	7.67
359.76	7.84
359.98	6.35
360.20	6.63
360.42	7.86
360.63	4.47
360.85	2.94
361.07	4.36
361.29	2.61
361.50	4.84
361.72	0.13
361.94	0.02
362.15	-1.64
362.37	-1.14
362.59	-0.26
362.81	-0.17
363.02	1.55
363.24	2.23
363.46	0.97
363.68	0.09
363.89	-0.88
364.11	0.67
364.33	1.49
364.54	1.23
364.76	0.30
364.98	0.54
365.20	-0.34
365.41	-3.24
365.63	-2.12
365.85	-0.69
366.06	-0.19
366.28	2.23
366.50	1.84
366.71	2.27
366.93	2.64
367.15	4.23
367.37	4.19
367.58	7.43
367.80	11.97
368.02	11.86
368.23	10.00
368.45	7.89
368.67	5.27
368.88	5.83
369.10	4.38
369.32	2.29
369.53	2.20
369.75	3.97
369.97	-0.22
370.19	-4.82
370.40	-5.77
370.62	-6.68
370.84	-2.72
371.05	-2.61
371.27	-3.74
371.49	-4.11
371.70	-1.12
371.92	-0.37
372.14	-4.08
372.35	-2.59
372.57	1.60
372.79	3.30
373.00	4.71
373.22	5.34
373.44	4.71
373.65	6.05
373.87	6.74
374.09	5.62
374.30	2.87
374.52	4.62
374.74	5.03
374.95	3.43
375.17	2.23
375.39	3.22
375.60	-1.51
375.82	-0.95
376.04	0.30
376.25	2.40
376.47	3.56
376.68	2.03
376.90	4.77
377.12	5.34
377.33	3.33
377.55	2.33
377.77	-0.17
377.98	1.14
378.20	2.31
378.42	2.89
378.63	1.69
378.85	0.74
379.07	4.39
379.28	1.28
379.50	0.07
379.71	4.00
379.93	4.86
380.15	7.09
380.36	10.26
380.58	6.14
380.80	5.60
381.01	4.51
381.23	6.63
381.44	9.33
381.66	10.43
381.88	10.59
382.09	7.52
382.31	8.12
382.53	6.85
382.74	6.70
382.96	8.47
383.17	5.46
383.39	3.59
383.61	3.46
383.82	-1.60
384.04	-0.76
384.25	0.32
384.47	-0.99
384.69	-3.52
384.90	-2.57
385.12	-3.70
385.33	-0.93
385.55	3.28
385.77	5.96
385.98	2.79
386.20	3.54
386.41	2.68
386.63	0.47
386.85	5.62
387.06	6.68
387.28	7.60
387.49	7.17
387.71	3.00
387.93	-1.27
388.14	-0.37
388.36	-1.15
388.57	0.34
388.79	-1.04
389.01	-0.28
389.22	-4.34
389.44	-3.05
389.65	-3.22
389.87	-2.77
390.08	-0.45
390.30	1.12
390.52	0.41
390.73	4.52
390.95	3.07
391.16	1.94
391.38	1.01
391.59	2.23
391.81	0.26
392.03	-1.53
392.24	-1.38
392.46	0.19
392.67	3.28
392.89	3.00
393.10	1.01
393.32	1.28
393.53	2.16
393.75	4.00
393.97	4.08
394.18	4.26
394.40	5.21
394.61	5.03
394.83	2.42
395.04	1.08
395.26	1.38
395.47	1.84
395.69	1.53
395.91	1.86
396.12	2.59
396.34	1.34
396.55	3.59
396.77	2.96
396.98	4.69
397.20	4.67
397.41	2.81
397.63	1.23
397.84	-1.43
398.06	-1.68
398.27	1.19
398.49	-0.19
398.71	0.26
398.92	-0.13
399.14	1.34
399.35	0.58
399.57	-0.61
399.78	2.12
400.00	4.86
400.21	6.39
400.43	5.72
400.64	3.67
400.86	6.96
401.07	11.60
401.29	10.59
401.50	8.68
401.72	4.21
401.93	4.99
402.15	2.23
402.36	-1.21
402.58	-0.97
402.79	0.52
403.01	-1.97
403.22	-3.67
403.44	-7.88
403.65	-6.76
403.87	-2.22
404.08	3.80
404.30	2.46
404.51	2.79
404.73	6.14
404.94	5.57
405.16	8.01
405.37	10.07
405.59	11.19
405.80	9.44
406.02	9.14
406.23	5.16
406.45	1.97
406.66	4.19
406.88	1.62
407.09	-0.48
407.31	-0.58
407.52	-3.56
407.74	-1.53
407.95	-0.86
408.17	2.40
408.38	2.35
408.60	3.78
408.81	5.92
409.03	5.59
409.24	7.88
409.45	10.80
409.67	10.33
409.88	12.60
410.10	11.08
410.31	8.77
410.53	5.25
410.74	3.03
410.96	0.34
411.17	-3.41
411.39	-3.78
411.60	-2.96
411.82	-5.21
412.03	-4.26
412.24	-6.24
412.46	-6.14
412.67	-5.68
412.89	-5.16
413.10	-4.02
413.32	-1.58
413.53	-2.25
413.75	-2.18
413.96	-3.84
414.17	-4.88
414.39	-5.03
414.60	-4.67
414.82	-3.93
415.03	-6.13
415.25	-1.73
415.46	2.61
415.68	2.59
415.89	10.35
416.10	10.26
416.32	12.83
416.53	13.40
416.75	13.20
416.96	12.70
417.18	13.18
417.39	14.99
417.60	13.70
417.82	10.15
418.03	10.04
418.25	6.27
418.46	9.77
418.67	8.28
418.89	8.73
419.10	7.71
419.32	7.39
419.53	6.65
419.75	4.73
419.96	1.34
420.17	1.62
420.39	1.43
420.60	0.04
420.82	-2.68
421.03	-2.48
421.24	-5.62
421.46	-2.77
421.67	-2.27
421.89	-1.86
422.10	-1.90
422.31	0.50
422.53	0.97
422.74	2.12
422.96	2.10
423.17	1.71
423.38	2.83
423.60	5.21
423.81	2.51
424.03	5.55
424.24	3.59
424.45	4.65
424.67	4.54
424.88	2.42
425.09	-0.04
425.31	-2.59
425.52	-0.50
425.74	-2.98
425.95	0.09
426.16	-0.74
426.38	-5.59
426.59	-4.47
426.80	-3.22
427.02	-4.65
427.23	-0.80
427.45	0.48
427.66	4.45
427.87	3.05
428.09	4.34
428.30	3.97
428.51	8.14
428.73	7.58
428.94	8.60
429.15	8.02
429.37	11.39
429.58	8.55
429.79	9.92
430.01	8.19
430.22	7.58
430.44	7.17
430.65	3.87
430.86	1.84
431.08	3.07
431.29	1.81
431.50	0.19
431.72	-1.40
431.93	-1.40
432.14	-3.43
432.36	-2.92
432.57	-0.13
432.78	-2.85
433.00	-2.94
433.21	-0.17
433.42	0.65
433.64	1.02
433.85	3.48
434.06	2.35
434.28	1.27
434.49	4.11
434.70	3.87
434.92	0.37
435.13	3.80
435.34	4.86
435.56	-0.71
435.77	0.07
435.98	-1.12
436.20	0.67
436.41	2.49
436.62	3.33
436.83	-0.45
437.05	-0.34
437.26	-0.73
437.47	-3.48
437.69	-2.79
437.90	1.79
438.11	4.71
438.33	4.77
438.54	1.92
438.75	2.25
438.97	2.36
439.18	3.95
439.39	4.41
439.60	8.97
439.82	12.75
440.03	13.31
440.24	10.17
440.46	5.18
440.67	5.16
440.88	5.88
441.10	3.41
441.31	4.49
441.52	3.85
441.73	3.54
441.95	-0.95
442.16	-0.69
442.37	-4.69
442.58	-2.57
442.80	-3.00
443.01	-2.76
443.22	-3.67
443.44	-3.20
443.65	-5.53
443.86	-1.84
444.07	-2.18
444.29	-2.07
444.50	-4.93
444.71	-0.15
444.92	-2.48
445.14	-2.31
445.35	-2.57
445.56	-1.45
445.78	-2.23
445.99	0.00
446.20	-4.62
446.41	-7.04
446.63	-5.01
446.84	-3.15
447.05	-5.51
447.26	-2.46
447.48	1.81
447.69	1.77
447.90	1.28
448.11	4.90
448.33	4.41
448.54	7.13
448.75	8.21
448.96	5.70
449.18	7.47
449.39	9.27
449.60	9.25
449.81	5.73
450.03	7.04
450.24	4.80
450.45	2.46
450.66	3.20
450.87	1.71
451.09	1.41
451.30	1.40
451.51	0.45
451.72	0.22
451.94	-2.23
452.15	-1.21
452.36	-0.22
452.57	0.07
452.78	-1.36
453.00	-2.66
453.21	-3.13
453.42	-0.91
453.63	0.88
453.85	-0.73
454.06	-0.74
454.27	-0.48
454.48	-4.06
454.69	-5.77
454.91	-3.26
455.12	-1.04
455.33	1.04
455.54	2.33
455.75	4.49
455.97	4.73
456.18	7.35
456.39	7.22
456.60	8.17
456.81	9.79
457.03	14.08
457.24	14.35
457.45	15.12
457.66	15.94
457.87	14.37
458.09	13.00
458.30	12.10
458.51	8.86
458.72	9.01
458.93	8.73
459.15	11.15
459.36	8.88
459.57	8.56
459.78	6.80
459.99	4.13
460.20	9.09
460.42	7.34
460.63	11.84
460.84	14.76
461.05	13.40
461.26	14.41
461.47	18.88
461.69	19.60
461.90	20.14
462.11	20.70
462.32	21.37
462.53	18.51
462.74	22.86
462.96	21.71
463.17	23.29
463.38	22.81
463.59	20.00
463.80	15.94
464.01	17.33
464.23	16.87
464.44	19.36
464.65	21.24
464.86	22.90
465.07	19.21
465.28	16.89
465.49	18.66
465.71	24.72
465.92	28.71
466.13	29.49
466.34	28.02
466.55	29.71
466.76	29.68
466.97	30.38
467.19	29.64
467.40	35.82
467.61	37.91
467.82	35.09
468.03	34.01
468.24	34.11
468.45	38.35
468.66	38.99
468.88	40.14
469.09	38.78
469.30	41.02
469.51	43.08
469.72	38.26
469.93	40.31
470.14	41.22
470.35	39.47
470.57	40.61
470.78	38.43
470.99	40.77
471.20	38.67
471.41	36.98
471.62	35.97
471.83	35.80
472.04	39.47
472.25	40.90
472.47	41.29
472.68	45.32
472.89	46.66
473.10	46.62
473.31	45.60
473.52	49.04
473.73	55.78
473.94	58.24
474.15	60.49
474.36	61.81
474.57	63.75
474.79	66.45
475.00	64.90
475.21	64.88
475.42	66.88
475.63	68.22
475.84	69.18
476.05	70.47
476.26	68.12
476.47	69.41
476.68	68.90
476.89	69.46
477.10	71.18
477.32	73.60
477.53	78.85
477.74	80.54
477.95	83.87
478.16	87.41
478.37	85.66
478.58	92.75
478.79	93.44
479.00	96.20
479.21	95.03
479.42	92.33
479.63	93.82
479.84	92.62
480.05	94.32
480.26	98.49
480.47	98.58
480.69	103.79
480.90	101.26
481.11	103.27
481.32	105.64
481.53	108.23
481.74	113.29
481.95	114.05
482.16	116.38
482.37	119.49
482.58	118.93
482.79	119.12
483.00	122.64
483.21	124.67
483.42	130.60
483.63	134.16
483.84	134.38
484.05	138.18
484.26	140.88
484.47	146.71
484.68	148.53
484.89	149.59
485.10	152.98
485.31	153.71
485.52	156.28
485.73	153.43
485.94	151.59
486.15	156.37
486.37	159.91
486.58	159.09
486.79	158.55
487.00	160.49
487.21	164.12
487.42	167.52
487.63	166.54
487.84	169.78
488.05	173.22
488.26	177.35
488.47	179.51
488.68	178.84
488.89	185.69
489.10	185.40
489.31	188.26
489.52	187.09
489.73	188.95
489.94	191.71
490.15	193.48
490.36	195.10
490.57	195.95
490.78	199.34
490.99	199.08
491.20	199.30
491.41	200.87
491.62	199.86
491.83	200.59
492.04	201.24
492.25	202.79
492.45	201.56
492.66	203.25
492.87	204.39
493.08	205.71
493.29	208.59
493.50	209.47
493.71	209.82
493.92	214.16
494.13	218.76
494.34	219.82
494.55	219.17
494.76	223.02
494.97	222.86
495.18	223.58
495.39	224.14
495.60	224.10
495.81	227.12
496.02	230.25
496.23	229.09
496.44	233.11
496.65	234.73
496.86	240.12
497.07	240.80
497.28	242.76
497.49	243.97
497.70	245.94
497.91	250.37
498.12	248.88
498.32	252.64
498.53	258.40
498.74	255.98
498.95	256.57
499.16	258.04
499.37	258.14
499.58	258.84
499.79	259.40
500.00	261.26
500.21	260.33
500.42	263.37
500.63	265.58
500.84	263.70
501.05	267.93
501.26	270.07
501.46	273.89
501.67	276.42
501.88	278.24
502.09	284.07
502.30	283.35
502.51	286.06
502.72	287.94
502.93	287.89
503.14	289.68
503.35	292.17
503.56	293.98
503.77	291.98
503.97	295.86
504.18	297.01
504.39	297.63
504.60	297.94
504.81	301.24
505.02	302.69
505.23	298.09
505.44	302.82
505.65	299.34
505.86	300.59
506.07	302.48
506.27	305.15
506.48	308.07
506.69	309.75
506.90	315.13
507.11	313.92
507.32	316.95
507.53	323.60
507.74	323.52
507.95	327.88
508.15	332.52
508.36	331.10
508.57	335.16
508.78	337.13
508.99	339.66
509.20	340.93
509.41	344.65
509.62	347.06
509.82	350.00
510.03	349.27
510.24	351.54
510.45	351.34
510.66	358.02
510.87	356.22
511.08	358.32
511.29	359.81
511.49	362.51
511.70	365.36
511.91	368.82
512.12	372.51
512.33	376.21
512.54	378.32
512.75	381.31
512.95	384.74
513.16	387.38
513.37	390.25
513.58	388.15
513.79	390.94
514.00	391.27
514.20	392.07
514.41	390.96
514.62	394.05
514.83	397.18
515.04	400.28
515.25	401.68
515.46	407.38
515.66	413.71
515.87	424.15
516.08	424.41
516.29	429.87
516.50	431.26
516.71	433.98
516.91	437.33
517.12	441.41
517.33	441.56
517.54	442.04
517.75	441.54
517.95	442.90
518.16	441.08
518.37	441.04
518.58	440.46
518.79	444.61
519.00	450.37
519.20	450.55
519.41	449.81
519.62	452.71
519.83	456.75
520.04	456.36
520.24	456.77
520.45	460.12
520.66	466.06
520.87	470.64
521.08	469.93
521.28	472.19
521.49	476.93
521.70	480.71
521.91	485.41
522.12	486.90
522.32	489.63
522.53	492.59
522.74	491.98
522.95	494.85
523.16	496.84
523.36	499.76
523.57	498.21
523.78	497.56
523.99	501.51
524.20	502.12
524.40	505.16
524.61	509.72
524.82	512.64
525.03	516.52
525.23	519.38
525.44	521.95
525.65	526.10
525.86	530.24
526.06	537.55
526.27	536.23
526.48	540.05
526.69	540.20
526.90	545.04
527.10	546.57
527.31	549.08
527.52	553.19
527.73	553.81
527.93	555.35
528.14	556.84
528.35	555.06
528.56	559.82
528.76	559.67
528.97	563.21
529.18	561.52
529.39	563.84
529.59	567.99
529.80	566.43
530.01	567.94
530.22	574.10
530.42	576.24
530.63	577.51
530.84	577.88
531.05	584.23
531.25	583.21
531.46	582.89
531.67	584.06
531.88	582.22
532.08	584.86
532.29	589.16
532.50	589.52
532.70	596.16
532.91	599.27
533.12	601.34
533.33	595.05
533.53	600.37
533.74	604.75
533.95	607.61
534.15	612.01
534.36	612.42
534.57	609.68
534.78	608.81
534.98	607.04
535.19	605.64
535.40	607.95
535.60	615.08
535.81	616.38
536.02	617.03
536.23	616.87
536.43	620.33
536.64	620.52
536.85	626.88
537.05	630.18
537.26	630.85
537.47	634.46
537.67	634.48
537.88	636.90
538.09	640.03
538.30	647.57
538.50	649.95
538.71	648.22
538.92	653.13
539.12	653.38
539.33	653.66
539.54	656.99
539.74	661.57
539.95	661.62
540.16	663.04
540.36	663.86
540.57	662.29
540.78	663.06
540.98	666.80
541.19	669.31
541.40	672.50
541.60	676.56
541.81	677.62
542.02	678.32
542.22	684.15
542.43	684.52
542.64	685.19
542.84	685.03
543.05	688.97
543.26	689.85
543.46	687.60
543.67	687.07
543.88	683.71
544.08	687.37
544.29	687.82
544.50	686.42
544.70	685.72
544.91	690.41
545.12	691.17
545.32	689.27
545.53	693.83
545.74	697.89
545.94	698.38
546.15	701.13
546.35	695.29
546.56	695.75
546.77	697.39
546.97	700.14
547.18	697.04
547.39	697.95
547.59	697.50
547.80	693.33
548.01	692.25
548.21	696.14
548.42	697.07
548.62	700.16
548.83	702.56
549.04	702.90
549.24	702.66
549.45	701.54
549.65	701.80
549.86	701.76
550.07	703.74
550.27	702.60
550.48	697.61
550.69	697.65
550.89	698.45
551.10	695.10
551.30	693.40
551.51	693.29
551.72	695.99
551.92	697.02
552.13	698.30
552.33	694.73
552.54	693.01
552.75	693.37
552.95	689.40
553.16	688.97
553.36	689.46
553.57	689.83
553.78	686.55
553.98	682.57
554.19	681.12
554.39	677.34
554.60	675.79
554.80	672.79
555.01	671.04
555.22	669.61
555.42	665.55
555.63	659.17
555.83	656.90
556.04	658.83
556.25	655.91
556.45	650.32
556.66	651.20
556.86	647.66
557.07	647.87
557.27	643.32
557.48	643.10
557.68	641.14
557.89	641.18
558.10	638.28
558.30	631.89
558.51	631.71
558.71	628.65
558.92	623.53
559.12	619.23
559.33	617.67
559.54	615.84
559.74	613.57
559.95	610.63
560.15	607.28
560.36	603.67
560.56	600.48
560.77	598.44
560.97	591.34
561.18	587.82
561.38	587.34
561.59	582.59
561.79	577.60
562.00	572.95
562.21	567.12
562.41	565.28
562.62	564.14
562.82	561.01
563.03	551.15
563.23	549.13
563.44	544.44
563.64	539.04
563.85	536.01
564.05	530.72
564.26	523.22
564.46	519.48
564.67	514.51
564.87	506.97
565.08	503.19
565.28	501.03
565.49	498.20
565.69	495.98
565.90	491.23
566.10	485.26
566.31	483.04
566.51	480.40
566.72	476.36
566.92	472.28
567.13	470.27
567.33	464.35
567.54	459.25
567.74	456.34
567.95	448.41
568.15	449.55
568.36	445.79
568.56	441.34
568.77	435.68
568.97	433.15
569.18	429.85
569.38	424.80
569.59	419.95
569.79	417.04
570.00	413.34
570.20	409.33
570.41	399.56
570.61	395.13
570.82	391.85
571.02	389.00
571.23	381.67
571.43	374.98
571.64	370.05
571.84	365.17
572.05	361.60
572.25	356.37
572.45	355.34
572.66	354.21
572.86	352.29
573.07	347.73
573.27	344.10
573.48	343.82
573.68	339.39
573.89	336.98
574.09	336.63
574.30	334.81
574.50	333.15
574.70	329.59
574.91	326.63
575.11	321.31
575.32	317.94
575.52	313.26
575.73	310.38
575.93	306.99
576.14	300.83
576.34	301.80
576.54	296.60
576.75	292.17
576.95	287.48
577.16	283.89
577.36	282.36
577.57	278.51
577.77	277.28
577.97	274.15
578.18	270.24
578.38	269.77
578.59	260.71
578.79	258.92
579.00	257.43
579.20	257.75
579.40	254.34
579.61	250.95
579.81	251.21
580.02	246.56
580.22	245.12
580.42	243.11
580.63	239.15
580.83	237.34
581.04	235.00
581.24	232.72
581.45	227.81
581.65	224.18
581.85	221.68
582.06	217.59
582.26	215.52
582.47	210.51
582.67	207.61
582.87	205.43
583.08	203.77
583.28	201.58
583.48	196.25
583.69	194.33
583.89	189.72
584.10	188.10
584.30	182.77
584.50	185.21
584.71	182.51
584.91	182.62
585.12	184.58
585.32	180.97
585.52	181.13
585.73	183.40
585.93	179.50
586.13	178.27
586.34	174.41
586.54	172.51
586.75	163.93
586.95	164.43
587.15	163.74
587.36	158.42
587.56	155.94
587.76	151.98
587.97	150.36
588.17	150.64
588.37	151.38
588.58	149.91
588.78	152.09
588.98	155.38
589.19	153.11
589.39	151.21
589.60	148.24
589.80	150.41
590.00	150.71
590.21	147.23
590.41	142.58
590.61	143.19
590.82	143.04
591.02	143.60
591.22	143.04
591.43	143.54
591.63	141.03
591.83	143.54
592.04	140.29
592.24	135.45
592.44	134.18
592.65	134.68
592.85	133.27
593.05	130.66
593.26	124.89
593.46	122.43
593.66	119.45
593.86	118.84
594.07	119.10
594.27	120.05
594.47	134.29
594.68	134.57
594.88	132.99
595.08	131.27
595.29	129.58
595.49	131.89
595.69	128.80
595.90	129.45
596.10	129.54
596.30	124.96
596.50	123.53
596.71	107.44
596.91	105.81
597.11	107.07
597.32	108.13
597.52	108.95
597.72	110.09
597.93	112.79
598.13	110.33
598.33	112.21
598.53	112.12
598.74	112.73
598.94	115.51
599.14	113.18
599.35	114.59
599.55	113.64
599.75	116.40
599.95	114.24
600.16	112.53
600.36	111.24
600.56	111.06
600.76	111.00
600.97	110.94
601.17	109.08
601.37	109.88
601.58	108.99
601.78	104.89
601.98	101.88
602.18	104.28
602.39	103.79
602.59	103.83
602.79	98.99
602.99	98.10
603.20	95.99
603.40	97.91
603.60	98.12
603.80	99.18
604.01	104.26
604.21	103.18
604.41	100.50
604.61	101.99
604.82	103.63
605.02	105.15
605.22	104.61
605.42	104.09
605.62	99.94
605.83	98.88
606.03	95.55
606.23	92.66
606.43	95.62
606.64	95.92
606.84	95.34
607.04	96.46
607.24	97.35
607.45	98.40
607.65	99.70
607.85	98.99
608.05	101.50
608.25	104.80
608.46	106.66
608.66	105.34
608.86	106.66
609.06	107.07
609.26	106.66
609.47	106.61
609.67	110.59
609.87	110.76
610.07	114.98
610.28	114.46
610.48	110.65
610.68	110.93
610.88	109.14
611.08	107.41
611.29	101.49
611.49	98.97
611.69	97.84
611.89	94.73
612.09	91.95
612.29	91.17
612.50	88.70
612.70	93.96
612.90	93.91
613.10	96.29
613.30	96.68
613.51	104.80
613.71	104.74
613.91	101.99
614.11	100.18
614.31	101.41
614.51	101.13
614.72	102.77
614.92	101.80
615.12	99.55
615.32	97.67
615.52	97.32
615.72	92.83
615.93	90.15
616.13	93.13
616.33	93.98
616.53	92.75
616.73	92.08
616.93	91.56
617.14	88.45
617.34	89.27
617.54	89.18
617.74	87.73
617.94	89.94
618.14	94.17
618.34	92.59
618.55	93.35
618.75	93.54
618.95	91.32
619.15	90.46
619.35	92.61
619.55	89.07
619.75	90.28
619.96	90.78
620.16	89.18
620.36	88.12
620.56	90.05
620.76	87.56
620.96	88.45
621.16	88.19
621.36	89.91
621.57	88.12
621.77	92.88
621.97	91.95
622.17	91.95
622.37	92.88
622.57	94.99
622.77	93.28
622.97	94.32
623.18	94.99
623.38	95.99
623.58	96.16
623.78	98.10
623.98	98.40
624.18	100.20
624.38	104.24
624.58	105.12
624.78	104.82
624.98	106.22
625.19	106.03
625.39	107.07
625.59	106.87
625.79	105.08
625.99	105.10
626.19	103.59
626.39	100.59
626.59	95.27
626.79	97.19
626.99	95.27
627.19	96.48
627.40	98.34
627.60	95.04
627.80	97.43
628.00	97.39
628.20	97.93
628.40	100.41
628.60	99.72
628.80	102.45
629.00	98.32
629.20	98.30
629.40	97.13
629.60	92.51
629.80	91.75
630.00	93.22
630.20	94.62
630.41	96.48
630.61	91.99
630.81	93.22
631.01	96.11
631.21	100.39
631.41	101.41
631.61	105.19
631.81	106.59
632.01	109.55
632.21	106.90
632.41	106.90
632.61	104.58
632.81	106.05
633.01	107.44
633.21	101.39
633.41	99.36
633.61	98.82
633.81	93.95
634.01	96.94
634.21	96.05
634.41	95.49
634.61	94.39
634.81	92.62
635.01	94.78
635.22	93.28
635.42	94.02
635.62	94.73
635.82	95.17
636.02	97.58
636.22	97.54
636.42	100.91
636.62	100.42
636.82	101.82
637.02	101.30
637.22	98.51
637.42	98.94
637.62	101.28
637.82	96.79
638.02	97.54
638.22	95.34
638.42	95.27
638.62	90.84
638.82	92.51
639.02	92.81
639.22	95.31
639.42	94.32
639.62	96.81
639.82	94.95
640.02	97.06
640.22	95.06
640.42	92.34
640.62	94.50
640.82	95.01
641.02	93.91
641.22	94.49
641.42	90.39
641.61	94.75
641.81	96.37
642.01	98.43
642.21	99.94
642.41	98.51
642.61	103.01
642.81	100.87
643.01	103.25
643.21	104.86
643.41	104.00
643.61	105.27
643.81	102.53
644.01	97.17
644.21	96.09
644.41	96.74
644.61	101.84
644.81	101.17
645.01	99.46
645.21	97.33
645.41	94.39
645.61	94.88
645.81	97.28
646.01	94.78
646.21	97.58
646.40	99.87
646.60	99.38
646.80	99.35
647.00	101.69
647.20	99.08
647.40	99.98
647.60	100.52
647.80	98.00
648.00	99.61
648.20	104.50
648.40	102.68
648.60	99.87
648.80	99.83
649.00	99.74
649.20	96.85
649.39	101.78
649.59	101.24
649.79	104.26
649.99	106.90
650.19	103.83
650.39	103.61
650.59	105.02
650.79	106.25
650.99	104.91
651.19	102.90
651.39	106.62
651.58	107.37
651.78	108.10
651.98	106.25
652.18	103.65
652.38	106.08
652.58	106.05
652.78	103.96
652.98	102.10
653.18	102.36
653.38	100.50
653.57	97.20
653.77	93.69
653.97	91.08
654.17	92.40
654.37	94.56
654.57	93.09
654.77	90.09
654.97	93.50
655.16	95.73
655.36	97.13
655.56	98.28
655.76	98.25
655.96	101.08
656.16	103.14
656.36	101.47
656.56	98.56
656.75	100.87
656.95	102.53
657.15	101.11
657.35	96.48
657.55	96.57
657.75	93.09
657.95	92.64
658.14	90.89
658.34	92.64
658.54	94.82
658.74	98.43
658.94	95.71
659.14	94.97
659.34	96.44
659.53	97.78
659.73	98.28
659.93	101.17
660.13	103.63
660.33	106.29
660.53	106.92
660.72	102.75
660.92	103.22
661.12	103.94
661.32	105.84
661.52	105.12
661.72	105.66
661.91	103.57
662.11	104.97
662.31	102.58
662.51	99.87
662.71	98.49
662.90	102.19
663.10	103.01
663.30	101.28
663.50	99.44
663.70	95.51
663.90	99.49
664.09	103.18
664.29	105.64
664.49	109.64
664.69	110.68
664.89	108.71
665.08	106.74
665.28	102.66
665.48	104.19
665.68	105.60
665.88	106.94
666.07	103.33
666.27	98.28
666.47	95.01
666.67	92.57
666.87	92.31
667.06	94.49
667.26	95.29
667.46	93.02
667.66	92.90
667.85	91.12
668.05	93.42
668.25	93.55
668.45	92.53
668.65	93.13
668.84	93.78
669.04	93.29
669.24	94.21
669.44	93.96
669.63	100.00
669.83	99.46
670.03	98.15
670.23	97.78
670.42	98.62
670.62	98.69
670.82	98.60
671.02	96.20
671.22	96.40
671.41	94.43
671.61	94.30
671.81	91.75
672.01	91.15
672.20	92.16
672.40	92.07
672.60	92.83
672.80	96.31
672.99	99.03
673.19	99.44
673.39	97.76
673.58	100.57
673.78	98.79
673.98	98.43
674.18	100.54
674.37	101.90
674.57	101.99
674.77	101.71
674.97	98.28
675.16	95.10
675.36	94.71
675.56	96.74
675.75	92.92
675.95	96.42
676.15	98.40
676.35	98.34
676.54	96.46
676.74	95.44
676.94	94.30
677.13	99.14
677.33	98.04
677.53	99.98
677.73	98.45
677.92	101.34
678.12	100.61
678.32	100.42
678.51	100.11
678.71	104.54
678.91	105.19
679.11	107.13
679.30	107.18
679.50	107.89
679.70	106.08
679.89	105.53
680.09	103.76
680.29	104.32
680.48	103.42
680.68	102.71
680.88	99.20
681.07	98.34
681.27	97.86
681.47	97.65
681.66	95.23
681.86	95.64
682.06	98.41
682.25	99.31
682.45	97.52
682.65	98.60
682.84	97.32
683.04	99.59
683.24	101.13
683.43	100.16
683.63	96.76
683.83	99.83
684.02	99.83
684.22	98.58
684.42	98.43
684.61	97.76
684.81	97.80
685.01	96.50
685.20	92.92
685.40	92.98
685.60	93.93
685.79	94.19
685.99	96.20
686.19	96.92
686.38	96.83
686.58	98.60
686.77	100.05
686.97	98.75
687.17	100.18
687.36	101.10
687.56	98.62
687.76	96.70
687.95	96.78
688.15	96.05
688.34	95.84
688.54	94.84
688.74	90.20
688.93	89.33
689.13	90.58
689.33	88.73
689.52	90.04
689.72	94.15
689.91	94.93
690.11	94.60
690.31	94.32
690.50	97.63
690.70	99.85
690.89	103.29
691.09	103.39
691.29	99.98
691.48	101.95
691.68	102.08
691.87	99.57
692.07	101.49
692.27	101.86
692.46	100.74
692.66	98.47
692.85	97.69
693.05	96.01
693.25	96.87
693.44	99.12
693.64	101.23
693.83	98.73
694.03	98.12
694.22	94.86
694.42	97.33
694.62	97.09
694.81	94.80
695.01	92.96
695.20	92.70
695.40	94.43
695.59	95.32
695.79	94.02
695.99	95.40
696.18	94.17
696.38	95.51
696.57	96.33
696.77	95.38
696.96	94.32
697.16	97.82
697.36	98.25
697.55	95.21
697.75	96.31
697.94	95.17
698.14	96.03
698.33	96.61
698.53	97.56
698.72	96.44
698.92	99.18
699.11	103.89
699.31	103.66
699.51	104.33
699.70	105.23
699.90	102.06
700.09	103.52
700.29	101.65
700.48	102.71
700.68	103.20
700.87	102.79
701.07	100.70
701.26	97.73
701.46	96.38
701.65	95.42
701.85	95.04
702.04	95.17
702.24	94.82
702.43	96.16
702.63	97.89
702.82	98.43
703.02	93.78
703.21	94.62
703.41	91.54
703.60	89.76
703.80	90.04
703.99	90.05
704.19	90.46
704.38	87.86
704.58	86.95
704.77	83.26
704.97	83.67
705.16	90.45
705.36	89.46
705.55	91.67
705.75	92.10
705.94	92.61
706.14	93.91
706.33	94.36
706.53	96.33
706.72	97.95
706.92	99.77
707.11	97.26
707.31	90.19
707.50	91.69
707.70	90.71
707.89	91.00
708.09	93.07
708.28	91.90
708.48	87.67
708.67	87.43
708.86	85.70
709.06	85.29
709.25	84.66
709.45	87.95
709.64	85.77
709.84	87.50
710.03	86.35
710.23	83.30
710.42	81.25
710.62	82.09
710.81	80.37
711.00	81.17
711.20	81.38
711.39	86.20
711.59	84.80
711.78	84.02
711.98	86.16
712.17	87.37
712.37	88.55
712.56	88.66
712.75	91.21
712.95	91.15
713.14	90.05
713.34	88.45
713.53	80.86
713.73	82.14
713.92	82.98
714.11	80.89
714.31	80.17
714.50	81.73
714.70	82.74
714.89	84.13
715.08	84.06
715.28	83.84
715.47	85.31
715.67	88.25
715.86	84.95
716.06	86.55
716.25	83.30
716.44	81.04
716.64	77.25
716.83	77.51
717.03	76.56
717.22	79.07
717.41	82.40
717.61	82.33
717.80	82.09
717.99	87.04
718.19	84.47
718.38	89.38
718.58	91.84
718.77	91.45
718.96	88.25
719.16	87.54
719.35	84.97
719.55	80.95
719.74	80.37
719.93	80.82
720.13	78.36
720.32	77.04
720.51	72.94
720.71	70.64
720.90	71.70
721.10	72.54
721.29	69.72
721.48	71.59
721.68	74.19
721.87	72.74
722.06	74.71
722.26	74.23
722.45	77.84
722.64	79.54
722.84	81.55
723.03	79.81
723.22	80.04
723.42	82.14
723.61	80.21
723.80	79.80
724.00	81.71
724.19	80.19
724.38	82.38
724.58	84.02
724.77	86.80
724.96	85.08
725.16	85.62
725.35	89.40
725.54	85.96
725.74	84.30
725.93	83.52
726.12	82.64
726.32	81.71
726.51	82.50
726.70	78.34
726.90	75.46
727.09	77.43
727.28	77.93
727.48	75.57
727.67	80.13
727.86	84.34
728.06	84.84
728.25	84.21
728.44	83.43
728.64	78.40
728.83	78.12
729.02	76.54
729.21	73.26
729.41	73.24
729.60	74.47
729.79	76.26
729.99	74.90
730.18	72.09
730.37	74.27
730.56	75.66
730.76	79.14
730.95	78.38
731.14	78.81
731.34	77.67
731.53	81.06
731.72	79.63
731.91	78.98
732.11	77.92
732.30	79.65
732.49	74.49
732.69	75.85
732.88	72.89
733.07	75.35
733.26	74.97
733.46	76.85
733.65	73.48
733.84	73.76
734.03	70.43
734.23	69.59
734.42	66.17
734.61	70.28
734.80	68.70
735.00	69.26
735.19	68.12
735.38	70.41
735.57	71.90
735.77	72.81
735.96	72.05
736.15	72.39
736.34	72.20
736.54	77.79
736.73	76.84
736.92	73.13
737.11	76.50
737.31	79.18
737.50	75.83
737.69	74.68
737.88	72.48
738.07	70.23
738.27	71.29
738.46	73.99
738.65	71.85
738.84	70.02
739.04	71.03
739.23	68.77
739.42	64.73
739.61	68.48
739.80	70.08
740.00	69.39
740.19	68.42
740.38	65.65
740.57	64.36
740.76	63.51
740.96	66.24
741.15	66.37
741.34	64.62
741.53	65.91
741.72	63.86
741.92	60.36
742.11	62.37
742.30	65.26
742.49	66.04
742.68	65.55
742.88	66.30
743.07	63.78
743.26	65.72
743.45	65.53
743.64	67.06
743.84	64.18
744.03	67.25
744.22	66.63
744.41	65.40
744.60	64.72
744.79	63.71
744.99	64.47
745.18	64.62
745.37	63.41
745.56	66.41
745.75	62.97
745.94	65.27
746.14	65.14
746.33	64.49
746.52	65.91
746.71	65.89
746.90	65.11
747.09	62.93
747.28	64.79
747.48	66.97
747.67	65.76
747.86	66.99
748.05	68.42
748.24	67.92
748.43	67.58
748.62	67.94
748.82	66.04
749.01	70.65
749.20	68.90
749.39	67.15
749.58	67.64
749.77	67.06
749.96	68.23
750.16	64.70
750.35	65.03
750.54	66.24
750.73	66.19
750.92	72.41
751.11	68.94
751.30	69.44
751.49	67.53
751.68	64.90
751.88	65.18
752.07	63.00
752.26	63.00
752.45	61.79
752.64	61.81
752.83	61.55
753.02	54.96
753.21	51.94
753.40	53.14
753.60	56.60
753.79	55.85
753.98	52.20
754.17	54.79
754.36	55.82
754.55	53.82
754.74	52.52
754.93	51.72
755.12	55.11
755.31	56.56
755.50	54.53
755.70	52.74
755.89	55.13
756.08	55.30
756.27	51.81
756.46	53.58
756.65	55.97
756.84	55.61
757.03	55.91
757.22	53.62
757.41	54.08
757.60	57.31
757.79	56.56
757.98	54.77
758.17	58.50
758.36	59.99
758.56	56.51
758.75	57.44
758.94	57.64
759.13	55.95
759.32	57.73
759.51	58.18
759.70	54.14
759.89	57.25
760.08	59.93
760.27	57.27
760.46	55.82
760.65	55.43
760.84	55.39
761.03	54.53
761.22	56.23
761.41	53.25
761.60	53.88
761.79	55.59
761.98	53.92
762.17	52.07
762.36	55.80
762.55	57.21
762.74	59.73
762.93	58.83
763.12	61.16
763.31	58.85
763.50	63.04
763.69	62.39
763.88	60.51
764.07	60.21
764.26	55.24
764.45	51.39
764.64	50.86
764.83	50.10
765.02	50.27
765.21	49.62
765.40	52.41
765.59	49.99
765.78	49.80
765.97	50.68
766.16	50.38
766.35	53.82
766.54	55.52
766.73	53.71
766.92	53.53
767.11	53.02
767.30	51.98
767.49	49.32
767.68	51.37
767.87	52.60
768.06	51.79
768.25	52.06
768.44	49.41
768.63	51.20
768.82	52.93
769.01	56.56
769.20	56.84
769.39	57.47
769.58	58.55
769.77	58.07
769.96	57.70
770.15	61.72
770.34	60.45
770.53	61.89
770.72	59.26
770.91	60.45
771.10	56.39
771.29	53.56
771.47	50.98
771.66	50.94
771.85	51.35
772.04	49.06
772.23	48.97
772.42	49.65
772.61	52.89
772.80	51.09
772.99	47.68
773.18	46.68
773.37	49.62
773.56	50.31
773.75	51.61
773.94	49.52
774.13	48.15
774.31	47.10
774.50	45.84
774.69	42.49
774.88	44.92
775.07	51.63
775.26	54.03
775.45	54.90
775.64	56.28
775.83	55.82
776.02	56.75
776.21	61.14
776.40	60.12
776.58	59.91
776.77	60.75
776.96	61.31
777.15	57.14
777.34	53.53
777.53	50.99
777.72	50.98
777.91	49.69
778.10	47.70
778.28	44.83
778.47	43.10
778.66	44.65
778.85	44.20
779.04	42.71
779.23	40.03
779.42	41.35
779.61	42.60
779.79	41.85
779.98	40.14
780.17	42.37
780.36	42.06
780.55	41.48
780.74	40.83
780.93	38.43
781.12	37.59
781.30	40.88
781.49	41.22
781.68	39.60
781.87	40.34
782.06	41.48
782.25	43.57
782.44	45.78
782.62	48.44
782.81	47.05
783.00	48.69
783.19	49.00
783.38	49.99
783.57	49.49
783.75	48.85
783.94	48.41
784.13	49.41
784.32	44.83
784.51	44.25
784.70	42.24
784.88	44.98
785.07	46.47
785.26	46.73
785.45	42.52
785.64	45.15
785.83	43.16
786.01	42.47
786.20	41.20
786.39	42.82
786.58	41.87
786.77	42.47
786.95	39.79
787.14	40.33
787.33	42.90
787.52	43.79
787.71	43.70
787.90	47.16
788.08	47.96
788.27	48.69
788.46	47.85
788.65	45.89
788.84	45.09
789.02	46.58
789.21	45.76
789.40	43.06
789.59	44.03
789.77	42.95
789.96	41.76
790.15	38.97
790.34	37.52
790.53	38.00
790.71	40.08
790.90	41.56
791.09	43.06
791.28	40.81
791.46	40.90
791.65	40.33
791.84	41.37
792.03	40.64
792.22	42.43
792.40	44.14
792.59	44.59
792.78	44.40
792.97	45.09
793.15	41.26
793.34	39.15
793.53	37.53
793.72	37.01
793.90	32.34
794.09	33.16
794.28	32.53
794.47	30.27
794.65	28.15
794.84	28.50
795.03	26.68
795.22	27.05
795.40	32.12
795.59	33.59
795.78	34.13
795.97	39.45
796.15	39.51
796.34	37.87
796.53	39.58
796.71	38.32
796.90	37.27
797.09	38.45
797.28	39.49
797.46	40.48
797.65	39.54
797.84	39.28
798.02	37.03
798.21	40.55
798.40	40.51
798.59	42.69
798.77	47.31
798.96	48.22
799.15	45.71
799.33	45.45
799.52	44.94
799.71	42.54
799.90	41.13
800.08	39.53
800.27	36.19
800.46	38.30
800.64	35.62
800.83	32.71
801.02	34.46
801.20	37.53
801.39	38.84
801.58	39.88
801.76	42.60
801.95	44.14
802.14	42.10
802.32	39.49
802.51	39.75
802.70	40.83
802.88	42.08
803.07	42.10
803.26	40.85
803.44	39.88
803.63	35.08
803.82	33.53
804.00	33.94
804.19	39.51
804.38	41.96
804.56	40.18
804.75	42.17
804.94	40.48
805.12	37.70
805.31	38.15
805.50	38.63
805.68	37.79
805.87	41.63
806.06	41.72
806.24	39.94
806.43	40.05
806.62	44.03
806.80	41.98
806.99	41.74
807.17	45.99
807.36	44.09
807.55	42.47
807.73	45.58
807.92	41.74
808.11	41.11
808.29	38.30
808.48	37.61
808.66	38.59
808.85	37.70
809.04	38.76
809.22	38.48
809.41	38.33
809.59	38.45
809.78	37.59
809.97	37.20
810.15	37.46
810.34	38.87
810.53	36.66
810.71	33.59
810.90	31.97
811.08	29.92
811.27	22.55
811.45	23.40
811.64	23.25
811.83	23.61
812.01	23.01
812.20	22.99
812.38	26.64
812.57	29.81
812.76	28.89
812.94	30.78
813.13	32.62
813.31	37.57
813.50	36.75
813.68	37.33
813.87	37.87
814.06	39.10
814.24	37.59
814.43	33.34
814.61	32.34
814.80	31.65
814.98	31.11
815.17	31.93
815.36	29.03
815.54	29.45
815.73	28.63
815.91	26.62
816.10	25.56
816.28	25.08
816.47	24.87
816.65	26.74
816.84	27.37
817.03	27.29
817.21	28.39
817.40	29.84
817.58	28.89
817.77	26.10
817.95	25.36
818.14	28.00
818.32	27.26
818.51	27.37
818.69	23.40
818.88	22.43
819.06	20.76
819.25	18.56
819.43	18.25
819.62	18.58
819.80	18.97
819.99	20.07
820.18	16.44
820.36	20.80
820.55	23.25
820.73	27.05
820.92	26.60
821.10	26.46
821.29	25.69
821.47	24.33
821.66	25.12
821.84	30.33
822.03	27.93
822.21	31.33
822.40	31.18
822.58	27.70
822.77	25.92
822.95	26.53
823.14	27.85
823.32	27.80
823.50	28.06
823.69	27.18
823.87	24.72
824.06	24.69
824.24	22.94
824.43	20.67
824.61	21.93
824.80	20.24
824.98	17.65
825.17	17.71
825.35	19.06
825.54	17.46
825.72	19.85
825.91	21.32
826.09	23.53
826.28	24.48
826.46	19.73
826.64	18.67
826.83	18.75
827.01	21.04
827.20	18.86
827.38	16.87
827.57	13.89
827.75	9.70
827.94	6.01
828.12	4.39
828.31	2.76
828.49	7.82
828.67	6.91
828.86	9.38
829.04	8.94
829.23	11.95
829.41	12.64
829.60	17.65
829.78	22.19
829.96	25.43
830.15	28.15
830.33	28.22
830.52	28.54
830.70	28.41
830.88	30.68
831.07	32.25
831.25	30.59
831.44	31.52
831.62	32.28
831.81	30.05
831.99	30.50
832.17	29.71
832.36	29.83
832.54	30.03
832.73	29.99
832.91	25.12
833.09	23.63
833.28	21.28
833.46	22.38
833.65	24.17
833.83	23.01
834.01	18.30
834.20	19.55
834.38	20.29
834.56	15.92
834.75	18.02
834.93	18.41
835.12	18.17
835.30	20.14
835.48	16.03
835.67	14.84
835.85	13.54
836.03	16.40
836.22	14.62
836.40	14.06
836.59	14.54
836.77	12.77
836.95	13.94
837.14	13.93
837.32	13.07
837.50	14.99
837.69	13.31
837.87	15.01
838.05	12.53
838.24	12.96
838.42	12.29
838.60	14.17
838.79	15.84
838.97	14.41
839.15	14.65
839.34	13.05
839.52	11.49
839.70	10.18
839.89	11.80
840.07	13.22
840.25	9.79
840.44	9.51
840.62	12.12
840.80	10.26
840.99	11.64
841.17	10.56
841.35	12.18
841.54	14.09
841.72	13.48
841.90	10.39
842.09	11.34
842.27	14.54
842.45	17.17
842.64	14.48
842.82	14.54
843.00	14.91
843.19	15.42
843.37	16.91
843.55	16.38
843.73	16.53
843.92	17.44
844.10	18.95
844.28	16.10
844.47	12.96
844.65	12.66
844.83	15.55
845.01	14.69
845.20	16.81
845.38	15.15
845.56	15.12
845.75	14.97
845.93	16.50
846.11	16.22
846.29	18.67
846.48	22.27
846.66	22.32
846.84	20.26
847.02	21.34
847.21	19.42
847.39	21.91
847.57	18.92
847.76	20.78
847.94	15.60
848.12	12.96
848.30	13.01
848.49	12.49
848.67	18.21
848.85	18.73
849.03	17.80
849.22	18.10
849.40	14.34
849.58	16.44
849.76	16.20
849.95	19.23
850.13	20.59
850.31	23.64
850.49	25.17
850.67	20.72
850.86	22.19
851.04	20.31
851.22	22.62
851.40	26.36
851.59	29.47
851.77	30.83
851.95	33.75
852.13	30.22
852.31	26.66
852.50	25.12
852.68	24.37
852.86	19.16
853.04	17.91
853.23	14.24
853.41	12.46
853.59	19.87
853.77	17.59
853.95	12.90
854.14	17.61
854.32	17.85
854.50	15.75
854.68	15.47
854.86	20.83
855.04	23.29
855.23	24.35
855.41	23.76
855.59	13.68
855.77	15.62
855.95	17.98
856.14	17.82
856.32	16.53
856.50	16.81
856.68	15.02
856.86	15.25
857.04	15.90
857.23	13.24
857.41	13.54
857.59	12.47
857.77	10.39
857.95	8.30
858.13	6.20
858.32	5.44
858.50	4.77
858.68	6.87
858.86	4.69
859.04	3.65
859.22	6.65
859.41	7.80
859.59	10.04
859.77	9.72
859.95	14.11
860.13	18.00
860.31	20.07
860.49	20.89
860.68	21.93
860.86	20.67
861.04	21.09
861.22	20.67
861.40	19.70
861.58	19.16
861.76	19.38
861.94	16.63
862.13	13.98
862.31	15.30
862.49	16.61
862.67	13.39
862.85	12.68
863.03	13.37
863.21	11.92
863.39	13.07
863.57	8.99
863.76	11.54
863.94	12.53
864.12	12.08
864.30	12.25
864.48	12.21
864.66	14.97
864.84	17.02
865.02	14.65
865.20	16.22
865.38	17.67
865.57	22.21
865.75	19.90
865.93	18.19
866.11	13.91
866.29	12.55
866.47	9.03
866.65	7.60
866.83	7.67
867.01	6.98
867.19	5.92
867.37	1.62
867.55	-0.84
867.73	-1.01
867.92	0.91
868.10	4.58
868.28	5.25
868.46	6.20
868.64	4.28
868.82	3.46
869.00	5.79
869.18	5.10
869.36	4.93
869.54	8.51
869.72	11.67
869.90	10.24
870.08	8.55
870.26	8.25
870.44	7.13
870.62	10.71
870.80	12.06
870.98	12.62
871.16	11.21
871.34	11.58
871.53	10.35
871.71	7.73
871.89	9.10
872.07	13.74
872.25	12.21
872.43	13.68
872.61	12.62
872.79	12.40
872.97	12.62
873.15	14.71
873.33	17.04
873.51	14.30
873.69	16.20
873.87	17.46
874.05	13.31
874.23	14.60
874.41	14.89
874.59	16.16
874.77	13.37
874.95	11.60
875.13	12.68
875.31	11.21
875.49	13.29
875.67	9.50
875.85	6.11
876.03	9.36
876.21	8.92
876.39	8.17
876.57	5.83
876.75	6.78
876.93	7.71
877.11	10.82
877.29	12.29
877.47	15.08
877.65	16.33
877.82	19.51
878.00	16.10
878.18	17.39
878.36	19.55
878.54	19.31
878.72	19.96
878.90	19.77
879.08	16.05
879.26	14.82
879.44	7.45
879.62	9.92
879.80	7.45
879.98	8.84
880.16	10.02
880.34	10.09
880.52	9.27
880.70	8.28
880.88	9.05
881.06	11.65
881.24	11.04
881.42	13.46
881.59	10.54
881.77	9.18
881.95	7.58
882.13	2.14
882.31	1.95
882.49	3.09
882.67	5.59
882.85	1.73
883.03	0.26
883.21	1.04
883.39	2.29
883.57	2.53
883.75	4.60
883.92	5.59
884.10	10.67
884.28	10.20
884.46	12.08
884.64	9.59
884.82	15.62
885.00	15.30
885.18	16.55
885.36	14.62
885.54	16.22
885.71	18.23
885.89	18.90
886.07	16.42
886.25	20.55
886.43	16.66
886.61	15.15
886.79	13.29
886.97	13.37
887.15	10.71
887.32	14.48
887.50	13.16
887.68	8.88
887.86	8.62
888.04	10.22
888.22	5.18
888.40	6.48
888.57	9.53
888.75	7.21
888.93	11.97
889.11	13.33
889.29	10.80
889.47	11.43
889.65	15.15
889.82	12.60
890.00	7.71
890.18	7.84
890.36	9.57
890.54	9.18
890.72	8.68
890.90	5.32
891.07	6.26
891.25	7.56
891.43	8.90
891.61	8.04
891.79	11.67
891.97	15.94
892.14	14.80
892.32	12.88
892.50	14.62
892.68	16.85
892.86	12.08
893.03	11.49
893.21	12.40
893.39	6.81
893.57	7.99
893.75	4.73
893.93	0.88
894.10	2.48
894.28	3.72
894.46	2.59
894.64	1.08
894.82	5.08
894.99	4.82
895.17	3.39
895.35	7.91
895.53	6.78
895.71	7.78
895.88	9.83
896.06	10.02
896.24	9.81
896.42	10.33
896.59	10.48
896.77	11.69
896.95	11.92
897.13	10.95
897.31	10.24
897.48	11.60
897.66	12.25
897.84	12.27
898.02	11.28
898.19	9.29
898.37	6.70
898.55	10.43
898.73	8.43
898.91	6.70
899.08	6.61
899.26	5.31
899.44	2.96
899.62	2.49
899.79	4.84
899.97	4.28
900.15	7.11
900.33	6.26
900.50	-0.39
900.68	-1.34
900.86	0.52
901.04	2.01
901.21	7.26
901.39	4.47
901.57	6.01
901.74	5.47
901.92	7.39
902.10	7.15
902.28	8.55
902.45	12.27
902.63	12.92
902.81	13.76
902.99	13.01
903.16	10.24
903.34	11.62
903.52	10.72
903.69	8.84
903.87	6.01
904.05	4.08
904.22	4.64
904.40	4.80
904.58	5.88
904.76	4.99
904.93	5.92
905.11	5.38
905.29	9.31
905.46	10.07
905.64	10.43
905.82	10.69
905.99	8.71
906.17	10.24
906.35	10.39
906.53	8.49
906.70	7.84
906.88	7.80
907.06	7.54
907.23	5.49
907.41	2.22
907.59	4.34
907.76	5.86
907.94	9.76
908.12	7.24
908.29	7.86
908.47	8.53
908.65	8.97
908.82	9.07
909.00	7.07
909.18	5.34
909.35	7.15
909.53	6.09
909.71	3.80
909.88	0.00
910.06	2.76
910.23	3.59
910.41	2.46
910.59	1.53
910.76	1.36
910.94	6.70
911.12	8.30
911.29	8.58
911.47	6.18
911.65	7.06
911.82	5.27
912.00	4.67
912.17	2.81
912.35	4.17
912.53	5.34
912.70	2.55
912.88	0.19
913.06	1.58
913.23	2.31
913.41	2.85
913.58	4.92
913.76	8.23
913.94	8.21
914.11	7.88
914.29	6.55
914.46	6.39
914.64	10.65
914.82	10.78
914.99	10.02
915.17	10.28
915.34	11.21
915.52	9.87
915.70	12.44
915.87	11.39
916.05	10.95
916.22	12.44
916.40	12.47
916.57	10.00
916.75	7.86
916.93	8.15
917.10	9.63
917.28	7.84
917.45	7.52
917.63	5.75
917.80	2.35
917.98	3.87
918.16	3.97
918.33	3.11
918.51	5.98
918.68	5.81
918.86	7.47
919.03	4.60
919.21	5.44
919.39	7.54
919.56	8.45
919.74	11.62
919.91	9.51
920.09	6.76
920.26	6.80
920.44	4.62
920.61	2.59
920.79	-0.02
920.96	-1.56
921.14	1.27
921.31	-2.70
921.49	-2.83
921.67	-2.31
921.84	-3.20
922.02	1.40
922.19	2.61
922.37	1.71
922.54	3.18
922.72	0.73
922.89	3.48
923.07	0.52
923.24	6.07
923.42	4.54
923.59	6.26
923.77	9.85
923.94	7.50
924.12	3.28
924.29	4.90
924.47	5.79
924.64	9.92
924.82	13.26
924.99	16.74
925.17	14.32
925.34	16.63
925.52	15.43
925.69	14.73
925.87	14.97
926.04	19.33
926.22	20.14
926.39	20.68
926.57	20.24
926.74	16.98
926.91	14.43
927.09	13.57
927.26	13.35
927.44	10.74
927.61	9.72
927.79	10.33
927.96	10.02
928.14	8.23
928.31	9.01
928.49	6.16
928.66	7.50
928.84	5.53
929.01	5.23
929.18	5.16
929.36	7.73
929.53	8.81
929.71	6.48
929.88	5.23
930.06	3.67
930.23	0.50
930.41	2.22
930.58	-0.13
930.75	1.34
930.93	1.90
931.10	0.13
931.28	-1.27
931.45	-0.13
931.63	2.25
931.80	1.30
931.97	0.65
932.15	2.53
932.32	2.70
932.50	1.92
932.67	3.72
932.84	3.26
933.02	6.67
933.19	7.69
933.37	5.01
933.54	2.81
933.71	5.31
933.89	7.88
934.06	6.46
934.24	5.57
934.41	7.26
934.58	7.22
934.76	8.71
934.93	6.48
935.11	4.13
935.28	3.67
935.45	2.53
935.63	1.92
935.80	-1.66
935.98	-0.41
936.15	-0.58
936.32	-1.12
936.50	-0.24
936.67	-2.51
936.84	-3.46
937.02	-2.48
937.19	-2.27
937.36	-1.06
937.54	-4.95
937.71	-2.33
937.89	-2.94
938.06	-3.07
938.23	-3.85
938.41	-4.64
938.58	-2.70
938.75	-0.71
938.93	2.18
939.10	1.23
939.27	3.22
939.45	8.60
939.62	9.61
939.79	9.09
939.97	8.10
940.14	5.86
940.31	2.68
940.49	1.66
940.66	0.56
940.83	-1.62
941.01	0.84
941.18	-1.25
941.35	-4.02
941.53	-4.69
941.70	-0.80
941.87	-0.15
942.05	0.32
942.22	2.79
942.39	4.43
942.57	5.03
942.74	7.39
942.91	5.51
943.08	6.09
943.26	5.64
943.43	3.28
943.60	2.38
943.78	8.19
943.95	8.49
944.12	7.95
944.29	7.84
944.47	5.94
944.64	2.51
944.81	2.12
944.99	-0.15
945.16	1.28
945.33	1.68
945.50	0.39
945.68	-4.60
945.85	-3.63
946.02	-5.16
946.20	-6.68
946.37	-5.53
946.54	-3.72
946.71	-1.10
946.89	2.70
947.06	3.72
947.23	6.11
947.40	9.18
947.58	12.33
947.75	11.93
947.92	12.70
948.09	12.98
948.27	12.92
948.44	12.06
948.61	7.35
948.78	4.97
948.96	3.13
949.13	2.44
949.30	-0.22
949.47	-3.09
949.65	-1.77
949.82	-0.15
949.99	2.20
950.16	0.07
950.33	-2.53
950.51	-1.38
950.68	0.11
950.85	1.10
951.02	2.22
951.20	1.95
951.37	1.79
951.54	-1.32
951.71	-2.25
951.88	-5.08
952.06	-2.94
952.23	-0.19
952.40	2.09
952.57	0.99
952.74	1.49
952.92	-0.95
953.09	-0.39
953.26	-1.94
953.43	0.74
953.60	-0.28
953.77	2.31
953.95	1.82
954.12	1.01
954.29	0.91
954.46	1.99
954.63	-1.17
954.81	-0.17
954.98	-0.22
955.15	0.28
955.32	1.49
955.49	0.91
955.66	-0.52
955.84	1.77
956.01	1.53
956.18	1.51
956.35	-0.82
956.52	1.58
956.69	2.33
956.87	1.69
957.04	2.20
957.21	2.35
957.38	4.34
957.55	5.27
957.72	3.70
957.89	5.03
958.07	5.16
958.24	6.33
958.41	7.09
958.58	5.55
958.75	3.72
958.92	2.98
959.09	2.29
959.26	1.15
959.44	0.28
959.61	-1.92
959.78	-1.94
959.95	-1.32
960.12	-1.69
960.29	-3.48
960.46	-5.75
960.63	-3.87
960.81	-4.00
960.98	-3.74
961.15	-1.64
961.32	-3.22
961.49	-2.14
961.66	-1.06
961.83	-1.25
962.00	-0.37
962.17	-0.24
962.34	3.00
962.52	2.76
962.69	2.70
962.86	1.69
963.03	-1.88
963.20	1.45
963.37	3.35
963.54	2.03
963.71	3.48
963.88	2.44
964.05	1.60
964.22	0.15
964.39	1.95
964.56	4.64
964.74	5.21
964.91	6.44
965.08	2.77
965.25	1.21
965.42	-0.20
965.59	-3.93
965.76	-6.33
965.93	-4.78
966.10	-0.82
966.27	-1.77
966.44	-3.74
966.61	0.06
966.78	-0.54
966.95	-0.99
967.12	-0.82
967.29	2.12
967.46	3.41
967.63	6.05
967.80	6.46
967.97	6.63
968.14	4.67
968.32	2.40
968.49	0.84
968.66	1.04
968.83	6.11
969.00	6.33
969.17	5.19
969.34	4.82
969.51	4.71
969.68	4.51
969.85	4.15
970.02	3.35
970.19	4.88
970.36	2.74
970.53	4.24
970.70	0.76
970.87	-0.02
971.04	-1.10
971.21	-0.86
971.38	-0.76
971.55	-0.32
971.72	-0.80
971.89	3.22
972.06	5.21
972.23	5.51
972.40	6.76
972.57	4.69
972.74	6.59
972.91	9.09
973.07	9.40
973.24	10.82
973.41	11.19
973.58	10.05
973.75	7.15
973.92	7.58
974.09	7.28
974.26	7.63
974.43	12.66
974.60	12.16
974.77	9.59
974.94	12.38
975.11	15.40
975.28	13.37
975.45	8.21
975.62	8.81
975.79	6.50
975.96	5.38
976.13	2.76
976.30	-0.06
976.47	-1.68
976.64	-4.06
976.80	-8.40
976.97	-15.56
977.14	-17.09
977.31	-10.82
977.48	-11.65
977.65	-11.34
977.82	-10.54
977.99	-8.42
978.16	-6.52
978.33	-4.60
978.50	-2.87
978.67	-1.32
978.83	1.55
979.00	4.17
979.17	1.14
979.34	4.52
979.51	5.64
979.68	2.57
979.85	2.14
980.02	0.35
980.19	-0.97
980.36	0.32
980.52	1.14
980.69	1.15
980.86	-1.14
981.03	-1.10
981.20	-2.25
981.37	-2.03
981.54	1.32
981.71	-1.32
981.88	-2.57
982.04	-4.58
982.21	-5.38
982.38	-8.06
982.55	-5.90
982.72	-0.26
982.89	-0.71
983.06	-3.43
983.22	-4.45
983.39	-3.80
983.56	-0.97
983.73	-0.97
983.90	1.97
984.07	3.13
984.24	3.39
984.40	1.30
984.57	-1.21
984.74	2.53
984.91	4.34
985.08	5.79
985.25	5.57
985.41	5.47
985.58	8.34
985.75	9.77
985.92	11.23
986.09	10.44
986.26	11.62
986.42	11.58
986.59	8.90
986.76	9.81
986.93	10.31
987.10	9.14
987.27	6.72
987.43	7.06
987.60	5.32
987.77	4.06
987.94	8.04
988.11	6.76
988.27	2.35
988.44	5.72
988.61	6.72
988.78	5.32
988.95	6.44
989.11	7.97
989.28	5.08
989.45	3.20
989.62	3.74
989.79	2.16
989.95	1.34
990.12	3.44
990.29	1.30
990.46	-1.25
990.62	-0.24
990.79	0.91
990.96	0.99
991.13	1.02
991.30	4.00
991.46	2.29
991.63	5.42
991.80	6.29
991.97	6.29
992.13	8.23
992.30	7.58
992.47	7.50
992.64	2.42
992.80	4.82
992.97	6.83
993.14	7.48
993.31	9.79
993.47	6.42
993.64	8.60
993.81	9.14
993.98	6.09
994.14	5.46
994.31	1.04
994.48	4.28
994.64	2.48
994.81	2.36
994.98	-1.71
995.15	1.21
995.31	2.23
995.48	0.30
995.65	2.79
995.82	3.26
995.98	5.36
996.15	10.02
996.32	10.35
996.48	10.65
996.65	10.57
996.82	12.38
996.99	8.23
997.15	8.62
997.32	10.78
997.49	9.85
997.65	10.69
997.82	12.86
997.99	10.35
998.15	10.33
998.32	8.49
998.49	6.31
998.65	7.61
998.82	4.77
998.99	4.28
999.15	3.18
999.32	3.33
999.49	3.24
999.65	-0.61
999.82	-2.23
999.99	-2.20
1000.15	-2.03
1000.32	-0.48
1000.49	-2.27
1000.65	0.48
1000.82	0.28
1000.99	-0.11
1001.15	-1.28
1001.32	-0.73
1001.49	-1.30
1001.65	-0.48
1001.82	-0.63
1001.99	-2.03
1002.15	-0.74
1002.32	-0.22
1002.49	-0.28
1002.65	0.24
1002.82	2.57
1002.99	2.01
1003.15	1.68
1003.32	2.22
1003.48	5.16
1003.65	5.55
1003.82	3.87
1003.98	4.45
1004.15	6.81
1004.32	6.72
1004.48	7.99
1004.65	6.63
1004.81	8.47
1004.98	8.62
1005.15	10.07
1005.31	10.87
1005.48	11.17
1005.64	15.81
1005.81	14.75
1005.98	12.10
1006.14	10.37
1006.31	6.81
1006.47	5.27
1006.64	3.61
1006.81	3.56
1006.97	4.34
1007.14	2.20
1007.30	3.18
1007.47	2.27
1007.63	0.67
1007.80	-0.50
1007.97	0.48
1008.13	2.66
1008.30	2.48
1008.46	3.44
1008.63	3.61
1008.79	3.26
1008.96	2.76
1009.13	0.07
1009.29	0.73
1009.46	2.55
1009.62	4.32
1009.79	3.07
1009.95	3.00
1010.12	3.59
1010.28	1.36
1010.45	-0.19
1010.62	-0.97
1010.78	2.27
1010.95	4.11
1011.11	3.07
1011.28	2.07
1011.44	-0.37
1011.61	1.82
1011.77	1.92
1011.94	1.21
1012.10	3.74
1012.27	4.19
1012.43	3.22
1012.60	-1.19
1012.76	-4.02
1012.93	-5.12
1013.10	-5.68
1013.26	-2.66
1013.43	-4.32
1013.59	-6.50
1013.76	-7.13
1013.92	-10.63
1014.09	-12.49
1014.25	-13.57
1014.42	-11.54
1014.58	-9.40
1014.75	-10.11
1014.91	-12.01
1015.08	-9.64
1015.24	-9.10
1015.41	-6.35
1015.57	-4.84
1015.73	-1.32
1015.90	0.13
1016.06	2.12
1016.23	-1.01
1016.39	-0.60
1016.56	2.68
1016.72	3.67
1016.89	0.26
1017.05	1.25
1017.22	-0.86
1017.38	0.30
1017.55	0.24
1017.71	0.24
1017.88	-0.43
1018.04	4.39
1018.21	1.56
1018.37	0.52
1018.53	1.34
1018.70	3.65
1018.86	3.15
1019.03	3.84
1019.19	0.95
1019.36	3.11
1019.52	3.02
1019.69	2.18
1019.85	0.73
1020.01	2.33
1020.18	3.56
1020.34	2.74
1020.51	-1.94
1020.67	-4.45
1020.84	-2.18
1021.00	-1.19
1021.16	-1.45
1021.33	0.61
1021.49	-0.58
1021.66	1.47
1021.82	0.56
1021.98	-1.92
1022.15	-0.67
1022.31	1.43
1022.48	2.51
1022.64	1.73
1022.80	6.55
1022.97	2.63
1023.13	3.15
1023.30	7.88
1023.46	7.34
1023.62	10.26
1023.79	11.80
1023.95	12.46
1024.12	12.59
1024.28	14.78
1024.44	16.27
1024.61	13.85
1024.77	15.51
1024.93	14.76
1025.10	13.33
1025.26	14.99
1025.43	13.39
1025.59	15.64
1025.75	14.62
1025.92	16.40
1026.08	16.48
1026.24	12.94
1026.41	13.13
1026.57	12.18
1026.73	12.86
1026.90	13.55
1027.06	9.12
1027.23	5.16
1027.39	1.56
1027.55	4.17
1027.72	4.36
1027.88	6.05
1028.04	2.01
1028.21	1.43
1028.37	1.86
1028.53	2.57
1028.70	0.74
1028.86	-1.64
1029.02	-0.35
1029.19	-0.93
1029.35	-2.79
1029.51	-5.01
1029.67	-5.05
1029.84	1.34
1030.00	0.07
1030.16	-0.30
1030.33	-2.36
1030.49	-2.74
1030.65	-0.06
1030.82	2.27
1030.98	3.93
1031.14	4.30
1031.31	4.88
1031.47	1.55
1031.63	1.14
1031.79	1.01
1031.96	3.26
1032.12	2.61
1032.28	3.97
1032.45	4.47
1032.61	4.84
1032.77	2.31
1032.93	1.27
1033.10	-0.60
1033.26	-2.51
1033.42	-2.35
1033.58	0.65
1033.75	-1.81
1033.91	-5.99
1034.07	-6.31
1034.24	-7.69
1034.40	-7.04
1034.56	-4.11
1034.72	-3.31
1034.89	-0.43
1035.05	2.81
1035.21	1.15
1035.37	-0.91
1035.54	0.32
1035.70	4.36
1035.86	5.10
1036.02	5.81
1036.19	7.67
1036.35	10.28
1036.51	9.44
1036.67	8.12
1036.83	5.85
1037.00	3.18
1037.16	3.03
1037.32	2.40
1037.48	1.99
1037.65	0.80
1037.81	0.74
1037.97	0.67
1038.13	-3.54
1038.29	-2.38
1038.46	-0.93
1038.62	0.17
1038.78	2.07
1038.94	-2.05
1039.10	-0.74
1039.27	-1.60
1039.43	-0.89
1039.59	-2.70
1039.75	-3.48
1039.91	-1.14
1040.08	-3.80
1040.24	-6.14
1040.40	-4.77
1040.56	-2.81
1040.72	1.95
1040.89	2.03
1041.05	2.20
1041.21	3.59
1041.37	3.69
1041.53	2.38
1041.69	3.56
1041.86	2.77
1042.02	1.40
1042.18	1.90
1042.34	3.41
1042.50	2.33
1042.66	0.80
1042.83	0.13
1042.99	-1.08
1043.15	0.24
1043.31	-1.36
1043.47	-1.88
1043.63	-1.49
1043.79	2.90
1043.96	2.61
1044.12	1.81
1044.28	3.93
1044.44	2.38
1044.60	3.37
1044.76	3.09
1044.92	3.67
1045.09	5.25
1045.25	3.13
1045.41	8.19
1045.57	7.89
1045.73	5.25
1045.89	2.92
1046.05	0.35
1046.21	35.43
1046.38	16.79
1046.54	-19.25
1046.70	-3.48
1046.86	-0.20
>>>>>End Processed Spectral Data<<<<<
