SpectraSuite Data File
++++++++++++++++++++++++++++++++++++
Date: Mon May 06 13:45:21 CDT 2013
User: Students
Dark Spectrum Present: Yes
Reference Spectrum Present: Yes
Number of Sampled Component Spectra: 1
Spectrometers: USB4H00887
Integration Time (usec): 100000 (USB4H00887)
Spectra Averaged: 10 (USB4H00887)
Boxcar Smoothing: 5 (USB4H00887)
Correct for Electrical Dark: No (USB4H00887)
Strobe/Lamp Enabled: No (USB4H00887)
Correct for Detector Non-linearity: No (USB4H00887)
Correct for Stray Light: No (USB4H00887)
Number of Pixels in Processed Spectrum: 3648
>>>>>Begin Processed Spectral Data<<<<<
345.83	-11.26
346.05	-11.26
346.26	-11.26
346.48	-3.28
346.70	3.28
346.92	-7.91
347.14	-9.25
347.35	-8.43
347.57	-9.09
347.79	-8.34
348.01	-7.26
348.23	-3.95
348.44	-6.14
348.66	-7.69
348.88	-7.60
349.10	-8.01
349.32	-6.22
349.53	-2.03
349.75	-3.13
349.97	1.28
350.19	2.12
350.41	0.74
350.62	-1.23
350.84	1.99
351.06	2.89
351.28	5.16
351.50	7.58
351.71	7.43
351.93	6.55
352.15	6.67
352.37	3.59
352.58	4.71
352.80	5.21
353.02	6.09
353.24	6.53
353.46	7.32
353.67	5.19
353.89	6.81
354.11	6.20
354.33	4.64
354.54	3.46
354.76	6.48
354.98	1.56
355.20	0.04
355.41	-0.67
355.63	-0.91
355.85	-2.81
356.07	-3.33
356.28	-5.16
356.50	-4.97
356.72	-3.18
356.94	0.17
357.15	-1.40
357.37	1.30
357.59	6.11
357.81	3.72
358.02	1.64
358.24	3.48
358.46	5.18
358.68	7.00
358.89	7.76
359.11	7.84
359.33	7.47
359.55	4.93
359.76	3.35
359.98	2.25
360.20	4.54
360.42	6.94
360.63	4.90
360.85	1.88
361.07	0.60
361.29	-1.62
361.50	-1.88
361.72	-3.26
361.94	-2.89
362.15	-3.09
362.37	-6.31
362.59	-6.67
362.81	-7.84
363.02	-6.26
363.24	-6.14
363.46	-6.85
363.68	-5.42
363.89	-7.41
364.11	-7.34
364.33	-5.14
364.54	-4.58
364.76	-2.55
364.98	-1.01
365.20	-4.06
365.41	-6.52
365.63	-3.05
365.85	-3.41
366.06	-5.47
366.28	-4.10
366.50	-2.64
366.71	-2.64
366.93	-1.10
367.15	-0.63
367.37	-1.32
367.58	4.88
367.80	8.90
368.02	9.66
368.23	9.90
368.45	8.92
368.67	9.25
368.88	7.58
369.10	6.13
369.32	7.13
369.53	5.42
369.75	7.82
369.97	3.70
370.19	3.76
370.40	3.50
370.62	5.36
370.84	8.71
371.05	10.30
371.27	11.51
371.49	11.10
371.70	9.38
371.92	9.12
372.14	8.15
372.35	10.84
372.57	12.51
372.79	12.96
373.00	12.75
373.22	11.97
373.44	9.42
373.65	8.47
373.87	8.43
374.09	7.65
374.30	9.18
374.52	5.59
374.74	3.26
374.95	-0.09
375.17	1.02
375.39	-1.01
375.60	-4.13
375.82	-3.65
376.04	-2.12
376.25	-1.56
376.47	2.22
376.68	0.47
376.90	3.02
377.12	2.98
377.33	1.95
377.55	-1.53
377.77	0.06
377.98	2.90
378.20	4.97
378.42	5.10
378.63	5.19
378.85	3.89
379.07	6.55
379.28	4.11
379.50	4.60
379.71	5.10
379.93	5.60
380.15	3.50
380.36	3.65
380.58	-0.13
380.80	-0.65
381.01	0.43
381.23	-2.46
381.44	-2.77
381.66	0.69
381.88	2.22
382.09	1.58
382.31	1.81
382.53	1.86
382.74	3.76
382.96	7.47
383.17	4.51
383.39	2.61
383.61	5.47
383.82	3.28
384.04	0.69
384.25	2.96
384.47	2.81
384.69	-0.22
384.90	0.43
385.12	-1.36
385.33	-2.90
385.55	0.30
385.77	1.01
385.98	-0.82
386.20	-1.04
386.41	-0.34
386.63	-3.78
386.85	-1.73
387.06	-0.89
387.28	0.69
387.49	-1.12
387.71	-4.43
387.93	-5.94
388.14	-4.32
388.36	-4.95
388.57	-1.47
388.79	-0.84
389.01	-3.93
389.22	-6.55
389.44	-4.92
389.65	-6.59
389.87	-4.90
390.08	-1.97
390.30	0.04
390.52	-2.72
390.73	0.28
390.95	-3.41
391.16	-5.46
391.38	-3.59
391.59	-1.66
391.81	-0.13
392.03	-2.01
392.24	-1.84
392.46	0.50
392.67	2.16
392.89	2.85
393.10	-0.84
393.32	-1.19
393.53	0.86
393.75	1.81
393.97	1.60
394.18	-0.17
394.40	2.22
394.61	3.39
394.83	-1.36
395.04	-3.76
395.26	-3.24
395.47	-1.84
395.69	0.82
395.91	0.61
396.12	0.09
396.34	0.93
396.55	0.71
396.77	-0.73
396.98	-2.16
397.20	-0.09
397.41	0.50
397.63	1.15
397.84	-0.09
398.06	-2.72
398.27	0.37
398.49	2.03
398.71	-0.34
398.92	1.06
399.14	2.70
399.35	2.36
399.57	0.52
399.78	0.41
400.00	1.34
400.21	0.76
400.43	1.40
400.64	-0.91
400.86	-1.60
401.07	-0.19
401.29	-1.38
401.50	-4.97
401.72	-8.60
401.93	-5.64
402.15	-8.56
402.36	-10.02
402.58	-4.92
402.79	-4.99
403.01	-7.67
403.22	-8.51
403.44	-8.71
403.65	-7.82
403.87	-2.01
404.08	5.62
404.30	3.95
404.51	4.80
404.73	5.42
404.94	0.24
405.16	3.17
405.37	7.02
405.59	10.35
405.80	8.28
406.02	6.81
406.23	5.73
406.45	-0.58
406.66	-0.41
406.88	-0.63
407.09	-2.25
407.31	1.43
407.52	-6.89
407.74	-8.82
407.95	-8.84
408.17	-4.64
408.38	-2.89
408.60	-2.42
408.81	2.07
409.03	3.69
409.24	3.48
409.45	7.11
409.67	5.55
409.88	9.83
410.10	9.66
410.31	7.50
410.53	2.14
410.74	0.99
410.96	-2.05
411.17	-4.11
411.39	-8.04
411.60	-6.53
411.82	-8.94
412.03	-9.46
412.24	-9.70
412.46	-9.92
412.67	-10.59
412.89	-8.62
413.10	-7.60
413.32	-4.77
413.53	-5.81
413.75	-6.48
413.96	-7.97
414.17	-8.86
414.39	-10.33
414.60	-11.52
414.82	-11.15
415.03	-12.25
415.25	-7.65
415.46	-7.39
415.68	-4.93
415.89	-1.84
416.10	1.94
416.32	4.30
416.53	4.54
416.75	7.75
416.96	10.76
417.18	8.25
417.39	8.86
417.60	5.73
417.82	5.86
418.03	2.79
418.25	3.28
418.46	6.13
418.67	6.35
418.89	8.30
419.10	6.89
419.32	5.70
419.53	8.15
419.75	10.44
419.96	9.81
420.17	8.04
420.39	8.34
420.60	3.09
420.82	0.13
421.03	-1.56
421.24	-4.52
421.46	-4.45
421.67	-3.50
421.89	0.67
422.10	-2.49
422.31	-0.91
422.53	-1.25
422.74	1.43
422.96	6.22
423.17	8.19
423.38	7.56
423.60	8.14
423.81	6.89
424.03	7.75
424.24	3.31
424.45	3.41
424.67	2.20
424.88	1.92
425.09	-2.40
425.31	-6.81
425.52	-10.72
425.74	-11.32
425.95	-9.68
426.16	-6.78
426.38	-8.42
426.59	-8.79
426.80	-5.77
427.02	-5.66
427.23	-4.28
427.45	-2.77
427.66	1.47
427.87	2.03
428.09	5.44
428.30	5.29
428.51	4.19
428.73	4.47
428.94	4.88
429.15	1.12
429.37	2.77
429.58	3.74
429.79	2.90
430.01	0.86
430.22	1.73
430.44	-0.43
430.65	-2.12
430.86	-1.21
431.08	-0.82
431.29	0.13
431.50	0.17
431.72	-1.47
431.93	-3.35
432.14	-0.45
432.36	1.15
432.57	3.43
432.78	3.31
433.00	2.53
433.21	3.41
433.42	4.97
433.64	4.54
433.85	7.13
434.06	8.62
434.28	9.55
434.49	7.26
434.70	6.22
434.92	5.16
435.13	7.35
435.34	10.28
435.56	6.01
435.77	4.71
435.98	5.38
436.20	4.95
436.41	3.91
436.62	3.78
436.83	0.69
437.05	2.40
437.26	2.16
437.47	0.86
437.69	-0.35
437.90	1.62
438.11	2.66
438.33	-0.76
438.54	1.14
438.75	-0.34
438.97	1.17
439.18	5.53
439.39	4.56
439.60	6.93
439.82	8.64
440.03	8.42
440.24	8.81
440.46	6.57
440.67	9.48
440.88	8.51
441.10	10.82
441.31	7.15
441.52	4.97
441.73	3.61
441.95	1.58
442.16	-1.41
442.37	-3.74
442.58	-1.56
442.80	-1.40
443.01	-1.73
443.22	-2.98
443.44	-5.83
443.65	-3.82
443.86	-3.09
444.07	0.43
444.29	-1.95
444.50	-1.38
444.71	2.49
444.92	-2.48
445.14	-1.86
445.35	-1.17
445.56	-1.56
445.78	-1.47
445.99	-0.65
446.20	-0.86
446.41	-5.99
446.63	-3.15
446.84	-3.67
447.05	-6.22
447.26	-5.06
447.48	-3.69
447.69	-4.32
447.90	-3.43
448.11	-1.86
448.33	-3.26
448.54	-2.89
448.75	-1.97
448.96	-4.11
449.18	-3.26
449.39	-0.63
449.60	1.19
449.81	0.56
450.03	1.51
450.24	0.78
450.45	-1.28
450.66	-0.48
450.87	-1.27
451.09	-1.66
451.30	-0.60
451.51	-0.74
451.72	0.73
451.94	-2.38
452.15	-3.91
452.36	-5.25
452.57	-5.85
452.78	-2.48
453.00	-2.92
453.21	-2.85
453.42	-0.63
453.63	-2.18
453.85	0.47
454.06	-2.48
454.27	0.17
454.48	1.47
454.69	2.48
454.91	5.40
455.12	5.42
455.33	4.62
455.54	7.02
455.75	7.19
455.97	8.60
456.18	7.76
456.39	9.22
456.60	9.12
456.81	10.85
457.03	14.41
457.24	14.71
457.45	15.29
457.66	17.18
457.87	15.23
458.09	14.02
458.30	12.86
458.51	12.16
458.72	10.95
458.93	11.88
459.15	11.97
459.36	10.93
459.57	10.33
459.78	5.81
459.99	3.63
460.20	4.90
460.42	6.39
460.63	10.85
460.84	11.88
461.05	14.32
461.26	12.92
461.47	14.67
461.69	12.47
461.90	10.54
462.11	14.93
462.32	14.30
462.53	14.21
462.74	16.72
462.96	14.82
463.17	14.34
463.38	12.53
463.59	14.17
463.80	15.62
464.01	15.83
464.23	17.05
464.44	15.86
464.65	19.70
464.86	21.30
465.07	19.36
465.28	19.51
465.49	22.27
465.71	23.50
465.92	26.53
466.13	22.30
466.34	21.11
466.55	23.10
466.76	25.30
466.97	25.97
467.19	24.43
467.40	24.15
467.61	25.79
467.82	23.72
468.03	27.00
468.24	26.94
468.45	32.77
468.66	34.22
468.88	35.63
469.09	35.23
469.30	38.46
469.51	41.98
469.72	43.04
469.93	43.01
470.14	45.50
470.35	42.04
470.57	40.55
470.78	37.52
470.99	38.78
471.20	36.12
471.41	32.56
471.62	32.56
471.83	31.39
472.04	31.11
472.25	33.44
472.47	31.33
472.68	34.33
472.89	36.14
473.10	35.36
473.31	37.53
473.52	39.73
473.73	44.68
473.94	43.29
474.15	42.13
474.36	45.33
474.57	45.24
474.79	48.80
475.00	49.62
475.21	48.22
475.42	49.56
475.63	48.85
475.84	52.24
476.05	54.87
476.26	53.21
476.47	56.75
476.68	57.10
476.89	57.25
477.10	59.95
477.32	63.36
477.53	69.05
477.74	70.65
477.95	74.04
478.16	74.53
478.37	74.27
478.58	79.01
478.79	79.28
479.00	84.23
479.21	85.40
479.42	84.67
479.63	85.62
479.84	85.27
480.05	90.13
480.26	92.87
480.47	92.27
480.69	94.67
480.90	93.98
481.11	96.96
481.32	97.78
481.53	103.72
481.74	105.92
481.95	107.87
482.16	108.75
482.37	108.23
482.58	111.04
482.79	116.12
483.00	120.64
483.21	124.87
483.42	129.90
483.63	131.54
483.84	129.32
484.05	134.51
484.26	135.24
484.47	139.82
484.68	142.54
484.89	145.39
485.10	145.18
485.31	144.57
485.52	148.55
485.73	146.99
485.94	147.14
486.15	151.01
486.37	149.95
486.58	150.79
486.79	152.22
487.00	156.43
487.21	158.03
487.42	163.17
487.63	166.52
487.84	164.99
488.05	169.31
488.26	172.63
488.47	170.82
488.68	172.48
488.89	176.14
489.10	175.46
489.31	174.21
489.52	171.23
489.73	175.46
489.94	176.01
490.15	182.36
490.36	185.69
490.57	186.37
490.78	193.25
490.99	194.39
491.20	193.96
491.41	195.90
491.62	197.20
491.83	201.41
492.04	197.83
492.25	199.36
492.45	198.75
492.66	198.08
492.87	200.68
493.08	200.40
493.29	202.47
493.50	203.07
493.71	204.69
493.92	209.73
494.13	212.32
494.34	215.56
494.55	215.65
494.76	217.29
494.97	217.10
495.18	218.05
495.39	218.65
495.60	219.04
495.81	222.80
496.02	223.92
496.23	221.52
496.44	224.20
496.65	227.31
496.86	232.05
497.07	233.10
497.28	234.70
497.49	236.30
497.70	239.84
497.91	243.82
498.12	245.68
498.32	253.33
498.53	258.40
498.74	257.00
498.95	256.13
499.16	258.60
499.37	260.65
499.58	264.30
499.79	263.85
500.00	266.27
500.21	266.48
500.42	270.70
500.63	270.41
500.84	269.62
501.05	273.98
501.26	275.73
501.46	276.85
501.67	275.73
501.88	275.21
502.09	280.63
502.30	277.93
502.51	280.42
502.72	277.98
502.93	277.95
503.14	279.25
503.35	278.75
503.56	280.07
503.77	280.01
503.97	285.65
504.18	288.11
504.39	288.45
504.60	291.84
504.81	296.15
505.02	300.81
505.23	301.16
505.44	305.50
505.65	305.07
505.86	307.55
506.07	307.77
506.27	311.64
506.48	314.88
506.69	316.54
506.90	318.27
507.11	318.07
507.32	320.08
507.53	326.89
507.74	326.93
507.95	332.07
508.15	337.71
508.36	342.49
508.57	344.75
508.78	348.02
508.99	350.48
509.20	353.96
509.41	356.96
509.62	356.98
509.82	356.14
510.03	358.43
510.24	361.24
510.45	359.64
510.66	363.50
510.87	360.52
511.08	358.69
511.29	360.70
511.49	365.64
511.70	367.39
511.91	372.38
512.12	378.20
512.33	381.72
512.54	382.90
512.75	384.85
512.95	385.19
513.16	391.48
513.37	397.14
513.58	399.30
513.79	403.58
514.00	406.41
514.20	410.62
514.41	410.02
514.62	412.70
514.83	416.37
515.04	421.70
515.25	426.20
515.46	431.21
515.66	433.63
515.87	442.21
516.08	440.98
516.29	446.29
516.50	447.00
516.71	450.26
516.91	453.10
517.12	457.67
517.33	457.65
517.54	458.97
517.75	458.97
517.95	462.45
518.16	461.33
518.37	464.01
518.58	464.76
518.79	469.41
519.00	473.02
519.20	477.05
519.41	475.97
519.62	482.91
519.83	488.22
520.04	487.60
520.24	492.24
520.45	495.85
520.66	501.31
520.87	503.63
521.08	502.03
521.28	506.09
521.49	507.30
521.70	513.44
521.91	515.01
522.12	517.22
522.32	522.88
522.53	524.32
522.74	523.81
522.95	526.72
523.16	530.70
523.36	533.70
523.57	532.45
523.78	537.05
523.99	542.28
524.20	542.32
524.40	545.45
524.61	546.92
524.82	549.58
525.03	554.46
525.23	558.22
525.44	561.81
525.65	567.18
525.86	572.37
526.06	578.68
526.27	578.12
526.48	581.64
526.69	578.33
526.90	584.83
527.10	588.03
527.31	591.32
527.52	594.56
527.73	594.90
527.93	596.65
528.14	599.53
528.35	594.32
528.56	599.79
528.76	601.28
528.97	607.45
529.18	607.17
529.39	608.88
529.59	610.69
529.80	609.12
530.01	612.49
530.22	619.73
530.42	622.27
530.63	628.37
530.84	626.46
531.05	633.34
531.25	635.76
531.46	637.72
531.67	640.53
531.88	642.22
532.08	644.03
532.29	649.49
532.50	647.77
532.70	653.00
532.91	655.37
533.12	658.74
533.33	655.48
533.53	658.03
533.74	657.16
533.95	659.07
534.15	659.33
534.36	665.52
534.57	662.39
534.78	663.39
534.98	663.54
535.19	667.28
535.40	669.28
535.60	672.52
535.81	675.81
536.02	684.99
536.23	686.20
536.43	695.06
536.64	695.64
536.85	702.42
537.05	709.36
537.26	714.11
537.47	715.56
537.67	719.23
537.88	723.64
538.09	727.64
538.30	730.36
538.50	735.63
538.71	734.44
538.92	739.24
539.12	741.81
539.33	743.17
539.54	740.94
539.74	743.36
539.95	744.62
540.16	747.86
540.36	748.14
540.57	749.58
540.78	750.13
540.98	753.65
541.19	755.55
541.40	756.39
541.60	757.15
541.81	762.91
542.02	766.18
542.22	771.69
542.43	775.47
542.64	780.28
542.84	783.65
543.05	790.31
543.26	794.98
543.46	797.16
543.67	799.40
543.88	797.83
544.08	799.84
544.29	800.96
544.50	801.22
544.70	803.47
544.91	807.92
545.12	809.43
545.32	810.70
545.53	813.71
545.74	818.91
545.94	823.75
546.15	830.75
546.35	832.13
546.56	836.60
546.77	840.64
546.97	843.26
547.18	842.72
547.39	843.07
547.59	843.87
547.80	843.91
548.01	844.30
548.21	844.82
548.42	848.77
548.62	849.87
548.83	852.77
549.04	855.01
549.24	858.60
549.45	862.01
549.65	866.72
549.86	867.41
550.07	872.77
550.27	871.86
550.48	873.38
550.69	874.58
550.89	877.01
551.10	875.92
551.30	879.38
551.51	881.15
551.72	883.75
551.92	882.60
552.13	883.23
552.33	879.38
552.54	883.42
552.75	885.30
552.95	884.18
553.16	886.57
553.36	890.23
553.57	889.43
553.78	885.15
553.98	884.44
554.19	890.14
554.39	891.74
554.60	895.07
554.80	894.24
555.01	897.64
555.22	898.59
555.42	898.89
555.63	895.24
555.83	893.75
556.04	898.52
556.25	898.03
556.45	893.77
556.66	895.58
556.86	890.75
557.07	891.46
557.27	884.82
557.48	882.28
557.68	877.96
557.89	880.20
558.10	880.16
558.30	880.09
558.51	880.35
558.71	880.29
558.92	876.38
559.12	878.69
559.33	876.44
559.54	874.80
559.74	876.33
559.95	875.93
560.15	875.90
560.36	876.25
560.56	871.82
560.77	869.68
560.97	863.89
561.18	863.48
561.38	859.85
561.59	858.77
561.79	856.98
562.00	852.27
562.21	851.40
562.41	849.98
562.62	846.89
562.82	843.22
563.03	837.82
563.23	838.75
563.44	832.82
563.64	833.37
563.85	831.05
564.05	829.33
564.26	826.45
564.46	820.73
564.67	813.73
564.87	808.46
565.08	804.33
565.28	801.91
565.49	800.98
565.69	804.26
565.90	797.87
566.10	792.19
566.31	790.14
566.51	788.11
566.72	786.90
566.92	786.61
567.13	783.52
567.33	780.35
567.54	777.39
567.74	770.82
567.95	764.54
568.15	760.37
568.36	756.71
568.56	751.59
568.77	745.01
568.97	739.41
569.18	733.90
569.38	729.00
569.59	723.79
569.79	718.76
570.00	713.12
570.20	704.02
570.41	697.41
570.61	693.37
570.82	688.53
571.02	686.98
571.23	677.41
571.43	670.30
571.64	663.45
571.84	658.03
572.05	652.78
572.25	648.44
572.45	645.30
572.66	644.72
572.86	641.27
573.07	636.29
573.27	630.07
573.48	632.21
573.68	627.26
573.89	628.17
574.09	627.09
574.30	623.90
574.50	620.55
574.70	619.38
574.91	612.60
575.11	608.84
575.32	602.79
575.52	599.37
575.73	598.58
575.93	595.88
576.14	587.52
576.34	587.08
576.54	580.58
576.75	576.65
576.95	572.33
577.16	569.99
577.36	564.05
577.57	562.99
577.77	558.98
577.97	552.82
578.18	547.52
578.38	546.42
578.59	535.41
578.79	532.51
579.00	529.92
579.20	526.05
579.40	520.74
579.61	515.59
579.81	511.28
580.02	506.15
580.22	503.63
580.42	499.02
580.63	491.68
580.83	488.72
581.04	485.55
581.24	480.38
581.45	473.77
581.65	468.52
581.85	463.57
582.06	457.42
582.26	452.90
582.47	448.32
582.67	444.65
582.87	441.30
583.08	436.61
583.28	434.21
583.48	426.54
583.69	421.51
583.89	417.32
584.10	411.85
584.30	407.60
584.50	407.64
584.71	400.27
584.91	398.94
585.12	398.96
585.32	395.63
585.52	391.24
585.73	389.65
585.93	387.16
586.13	385.15
586.34	382.39
586.54	377.81
586.75	369.29
586.95	367.48
587.15	358.00
587.36	352.25
587.56	348.47
587.76	341.49
587.97	338.03
588.17	332.42
588.37	326.17
588.58	323.71
588.78	320.60
588.98	319.82
589.19	315.13
589.39	316.02
589.60	308.96
589.80	309.80
590.00	309.21
590.21	306.45
590.41	303.06
590.61	302.50
590.82	298.39
591.02	296.64
591.22	291.15
591.43	288.37
591.63	282.94
591.83	283.98
592.04	280.27
592.24	274.65
592.44	269.61
592.65	266.33
592.85	262.38
593.05	259.05
593.26	253.93
593.46	253.20
593.66	246.63
593.86	245.64
594.07	243.58
594.27	238.20
594.47	250.34
594.68	249.72
594.88	245.09
595.08	241.31
595.29	236.28
595.49	237.29
595.69	233.32
595.90	234.29
596.10	230.53
596.30	225.56
596.50	224.46
596.71	208.89
596.91	208.06
597.11	210.79
597.32	209.84
597.52	208.26
597.72	205.30
597.93	201.86
598.13	200.09
598.33	198.84
598.53	197.22
598.74	193.27
598.94	191.99
599.14	187.18
599.35	185.36
599.55	184.86
599.75	188.28
599.95	188.25
600.16	189.23
600.36	186.55
600.56	187.61
600.76	184.67
600.97	185.96
601.17	182.60
601.37	179.66
601.58	178.75
601.78	173.70
601.98	169.35
602.18	167.65
602.39	164.73
602.59	162.94
602.79	157.86
602.99	156.19
603.20	151.62
603.40	150.51
603.60	151.07
603.80	147.83
604.01	150.00
604.21	146.99
604.41	145.96
604.61	146.47
604.82	146.86
605.02	146.26
605.22	144.16
605.42	145.28
605.62	143.02
605.83	140.29
606.03	139.09
606.23	135.56
606.43	136.39
606.64	132.97
606.84	132.91
607.04	129.41
607.24	129.77
607.45	132.24
607.65	130.14
607.85	129.12
608.05	131.41
608.25	134.63
608.46	135.24
608.66	136.36
608.86	138.59
609.06	136.56
609.26	140.97
609.47	139.86
609.67	142.18
609.87	142.86
610.07	144.47
610.28	144.44
610.48	140.88
610.68	143.21
610.88	141.42
611.08	140.10
611.29	136.97
611.49	130.51
611.69	130.06
611.89	125.09
612.09	122.52
612.29	124.29
612.50	119.53
612.70	121.80
612.90	118.60
613.10	117.83
613.30	118.30
613.51	122.39
613.71	122.52
613.91	119.42
614.11	117.13
614.31	118.43
614.51	114.67
614.72	116.05
614.92	112.73
615.12	111.11
615.32	110.05
615.52	106.64
615.72	101.97
615.93	101.52
616.13	103.09
616.33	102.40
616.53	100.57
616.73	100.24
616.93	99.08
617.14	97.06
617.34	97.00
617.54	98.66
617.74	98.13
617.94	100.18
618.14	101.32
618.34	99.74
618.55	102.38
618.75	101.86
618.95	103.42
619.15	103.01
619.35	103.35
619.55	103.52
619.75	104.39
619.96	104.56
620.16	103.35
620.36	101.52
620.56	103.55
620.76	101.21
620.96	101.60
621.16	101.23
621.36	102.45
621.57	101.99
621.77	103.66
621.97	99.96
622.17	99.46
622.37	101.34
622.57	102.25
622.77	99.64
622.97	98.41
623.18	100.57
623.38	99.66
623.58	98.84
623.78	101.30
623.98	100.65
624.18	102.49
624.38	103.01
624.58	100.31
624.78	103.01
624.98	105.30
625.19	107.20
625.39	102.03
625.59	100.85
625.79	101.80
625.99	100.57
626.19	101.49
626.39	99.18
626.59	96.57
626.79	100.31
626.99	99.64
627.19	101.65
627.40	103.09
627.60	105.40
627.80	105.62
628.00	103.74
628.20	105.14
628.40	104.54
628.60	101.75
628.80	104.32
629.00	101.10
629.20	100.02
629.40	97.73
629.60	96.20
629.80	95.99
630.00	98.17
630.20	100.67
630.41	101.24
630.61	99.90
630.81	101.49
631.01	104.35
631.21	108.02
631.41	108.78
631.61	109.44
631.81	109.18
632.01	111.78
632.21	109.75
632.41	106.55
632.61	105.19
632.81	102.60
633.01	108.37
633.21	106.08
633.41	100.80
633.61	99.83
633.81	99.36
634.01	102.14
634.21	99.83
634.41	100.93
634.61	101.91
634.81	100.39
635.01	103.93
635.22	101.34
635.42	99.27
635.62	101.62
635.82	102.90
636.02	104.43
636.22	104.07
636.42	105.40
636.62	102.66
636.82	104.80
637.02	103.81
637.22	102.66
637.42	101.97
637.62	104.73
637.82	100.18
638.02	103.01
638.22	100.76
638.42	97.41
638.62	94.50
638.82	96.37
639.02	95.29
639.22	98.27
639.42	99.70
639.62	99.79
639.82	95.99
640.02	100.00
640.22	92.61
640.42	92.05
640.62	94.58
640.82	99.21
641.02	97.45
641.22	98.77
641.42	96.01
641.61	97.67
641.81	97.67
642.01	101.77
642.21	101.82
642.41	101.77
642.61	100.85
642.81	102.23
643.01	101.56
643.21	102.40
643.41	103.03
643.61	105.02
643.81	102.60
644.01	101.32
644.21	100.20
644.41	97.87
644.61	102.99
644.81	102.53
645.01	100.48
645.21	99.64
645.41	96.27
645.61	94.15
645.81	94.86
646.01	92.92
646.21	95.47
646.40	95.88
646.60	98.60
646.80	96.31
647.00	98.82
647.20	96.18
647.40	97.15
647.60	99.79
647.80	97.39
648.00	96.66
648.20	100.18
648.40	98.69
648.60	95.01
648.80	95.25
649.00	94.67
649.20	93.09
649.39	96.83
649.59	94.45
649.79	96.46
649.99	102.38
650.19	101.93
650.39	101.60
650.59	100.05
650.79	100.70
650.99	98.19
651.19	97.69
651.39	100.15
651.58	99.18
651.78	99.05
651.98	98.54
652.18	93.37
652.38	91.56
652.58	88.81
652.78	90.54
652.98	91.34
653.18	94.75
653.38	95.49
653.57	93.46
653.77	92.40
653.97	92.18
654.17	88.12
654.37	90.80
654.57	91.43
654.77	90.37
654.97	91.17
655.16	93.33
655.36	93.03
655.56	93.00
655.76	93.07
655.96	94.67
656.16	93.13
656.36	97.58
656.56	95.77
656.75	97.17
656.95	99.42
657.15	97.22
657.35	92.81
657.55	92.20
657.75	91.32
657.95	89.79
658.14	86.87
658.34	90.32
658.54	92.36
658.74	91.26
658.94	89.42
659.14	87.63
659.34	91.80
659.53	92.77
659.73	93.42
659.93	95.51
660.13	99.61
660.33	102.49
660.53	102.08
660.72	97.84
660.92	100.87
661.12	101.49
661.32	102.96
661.52	97.19
661.72	99.79
661.91	102.31
662.11	102.12
662.31	98.54
662.51	98.43
662.71	97.74
662.90	99.90
663.10	99.77
663.30	101.28
663.50	101.17
663.70	100.78
663.90	100.37
664.09	95.94
664.29	96.72
664.49	100.41
664.69	100.20
664.89	98.13
665.08	97.48
665.28	95.49
665.48	93.83
665.68	96.61
665.88	99.44
666.07	97.07
666.27	96.55
666.47	92.51
666.67	88.30
666.87	87.28
667.06	89.74
667.26	89.48
667.46	88.79
667.66	91.06
667.85	86.24
668.05	85.64
668.25	88.57
668.45	89.89
668.65	94.65
668.84	98.84
669.04	97.95
669.24	100.22
669.44	99.29
669.63	102.85
669.83	102.92
670.03	101.54
670.23	103.05
670.42	101.26
670.62	100.98
670.82	100.18
671.02	98.32
671.22	99.74
671.41	94.69
671.61	94.15
671.81	93.18
672.01	94.41
672.20	95.83
672.40	94.08
672.60	98.43
672.80	100.52
672.99	104.41
673.19	103.61
673.39	103.22
673.58	105.00
673.78	104.37
673.98	102.86
674.18	102.36
674.37	104.87
674.57	104.97
674.77	101.77
674.97	96.24
675.16	88.81
675.36	88.25
675.56	87.11
675.75	84.84
675.95	87.47
676.15	90.00
676.35	88.71
676.54	87.67
676.74	87.24
676.94	84.67
677.13	89.18
677.33	91.49
677.53	91.62
677.73	92.55
677.92	95.44
678.12	95.88
678.32	93.69
678.51	91.82
678.71	93.50
678.91	96.61
679.11	98.58
679.30	97.89
679.50	100.16
679.70	101.41
679.89	102.06
680.09	100.61
680.29	101.34
680.48	101.64
680.68	103.29
680.88	99.94
681.07	97.71
681.27	99.20
681.47	101.23
681.66	97.30
681.86	99.29
682.06	99.77
682.25	102.04
682.45	100.52
682.65	101.64
682.84	99.98
683.04	103.37
683.24	103.70
683.43	102.68
683.63	97.45
683.83	99.57
684.02	97.02
684.22	94.13
684.42	90.97
684.61	89.35
684.81	88.51
685.01	87.06
685.20	84.97
685.40	84.66
685.60	85.23
685.79	87.78
685.99	88.16
686.19	87.43
686.38	90.09
686.58	92.72
686.77	94.08
686.97	95.51
687.17	96.44
687.36	94.43
687.56	93.28
687.76	91.15
687.95	89.79
688.15	88.66
688.34	88.71
688.54	87.63
688.74	85.83
688.93	85.12
689.13	82.37
689.33	81.51
689.52	84.15
689.72	86.03
689.91	86.05
690.11	86.93
690.31	86.83
690.50	90.50
690.70	91.41
690.89	91.34
691.09	88.83
691.29	89.89
691.48	91.66
691.68	91.64
691.87	91.97
692.07	92.88
692.27	92.61
692.46	90.93
692.66	88.38
692.85	86.95
693.05	89.09
693.25	91.77
693.44	91.43
693.64	93.16
693.83	90.67
694.03	86.48
694.22	85.85
694.42	87.28
694.62	87.08
694.81	88.51
695.01	89.94
695.20	88.04
695.40	90.09
695.59	88.90
695.79	87.32
695.99	86.52
696.18	86.72
696.38	87.39
696.57	86.46
696.77	86.54
696.96	83.61
697.16	83.07
697.36	82.46
697.55	81.04
697.75	82.78
697.94	79.00
698.14	81.99
698.33	84.36
698.53	86.35
698.72	86.59
698.92	90.09
699.11	89.66
699.31	92.25
699.51	92.46
699.70	91.73
699.90	91.15
700.09	93.18
700.29	92.42
700.48	90.50
700.68	91.13
700.87	92.36
701.07	90.20
701.26	91.84
701.46	89.79
701.65	88.68
701.85	91.92
702.04	90.17
702.24	90.58
702.43	91.43
702.63	95.12
702.82	91.43
703.02	88.29
703.21	86.93
703.41	83.61
703.60	80.39
703.80	83.56
703.99	79.37
704.19	79.91
704.38	80.89
704.58	80.97
704.77	76.67
704.97	76.89
705.16	78.94
705.36	79.03
705.55	80.60
705.75	82.37
705.94	79.74
706.14	84.86
706.33	85.23
706.53	84.53
706.72	83.63
706.92	87.06
707.11	90.04
707.31	87.09
707.50	89.78
707.70	88.21
707.89	87.21
708.09	91.64
708.28	87.06
708.48	86.15
708.67	85.83
708.86	86.83
709.06	87.34
709.25	84.53
709.45	87.08
709.64	83.61
709.84	85.05
710.03	85.44
710.23	78.77
710.42	78.08
710.62	77.73
710.81	77.45
711.00	74.79
711.20	72.93
711.39	74.02
711.59	73.73
711.78	74.99
711.98	77.41
712.17	79.80
712.37	80.52
712.56	82.59
712.75	83.58
712.95	82.33
713.14	82.76
713.34	82.81
713.53	79.37
713.73	77.36
713.92	77.58
714.11	73.43
714.31	69.33
714.50	71.03
714.70	70.69
714.89	72.46
715.08	73.37
715.28	74.62
715.47	73.63
715.67	76.63
715.86	73.58
716.06	74.45
716.25	75.40
716.44	75.51
716.64	76.93
716.83	76.56
717.03	74.53
717.22	75.46
717.41	76.05
717.61	77.00
717.80	74.56
717.99	77.99
718.19	77.62
718.38	79.72
718.58	81.81
718.77	78.85
718.96	75.70
719.16	75.29
719.35	76.48
719.55	76.45
719.74	75.20
719.93	78.03
720.13	79.03
720.32	76.02
720.51	74.34
720.71	72.18
720.90	74.62
721.10	77.80
721.29	77.84
721.48	76.82
721.68	75.51
721.87	76.04
722.06	74.96
722.26	76.35
722.45	79.98
722.64	78.55
722.84	79.42
723.03	77.15
723.22	75.63
723.42	75.16
723.61	75.37
723.80	75.64
724.00	77.08
724.19	79.65
724.38	79.07
724.58	80.21
724.77	83.89
724.96	84.71
725.16	86.24
725.35	87.13
725.54	86.67
725.74	84.39
725.93	83.18
726.12	80.50
726.32	77.67
726.51	79.52
726.70	77.86
726.90	75.23
727.09	77.67
727.28	77.62
727.48	76.50
727.67	77.95
727.86	83.99
728.06	84.99
728.25	85.96
728.44	86.98
728.64	81.66
728.83	81.75
729.02	81.53
729.21	77.79
729.41	77.62
729.60	77.04
729.79	79.24
729.99	73.76
730.18	75.37
730.37	77.56
730.56	76.67
730.76	77.69
730.95	74.99
731.14	73.19
731.34	73.45
731.53	74.96
731.72	75.96
731.91	74.32
732.11	75.64
732.30	72.11
732.49	69.26
732.69	71.08
732.88	71.90
733.07	74.27
733.26	76.00
733.46	73.17
733.65	70.47
733.84	69.65
734.03	68.83
734.23	67.23
734.42	68.33
734.61	70.17
734.80	68.77
735.00	67.62
735.19	66.30
735.38	65.91
735.57	70.52
735.77	71.25
735.96	69.44
736.15	68.25
736.34	67.12
736.54	66.76
736.73	66.34
736.92	60.53
737.11	61.68
737.31	60.68
737.50	60.66
737.69	60.17
737.88	61.38
738.07	61.68
738.27	64.14
738.46	66.41
738.65	67.36
738.84	64.05
739.04	65.63
739.23	64.92
739.42	66.61
739.61	67.83
739.80	68.23
740.00	68.63
740.19	69.78
740.38	66.65
740.57	65.55
740.76	66.39
740.96	68.27
741.15	72.78
741.34	71.98
741.53	72.18
741.72	71.51
741.92	67.97
742.11	66.75
742.30	67.25
742.49	66.75
742.68	64.47
742.88	62.07
743.07	60.82
743.26	61.72
743.45	63.73
743.64	63.88
743.84	65.78
744.03	67.34
744.22	65.80
744.41	65.20
744.60	64.47
744.79	65.18
744.99	66.82
745.18	67.38
745.37	64.05
745.56	62.13
745.75	59.73
745.94	56.71
746.14	56.58
746.33	58.20
746.52	59.63
746.71	58.87
746.90	60.99
747.09	61.27
747.28	62.52
747.48	66.97
747.67	67.94
747.86	65.89
748.05	66.04
748.24	65.16
748.43	63.10
748.62	63.02
748.82	63.65
749.01	64.01
749.20	61.27
749.39	59.52
749.58	55.65
749.77	53.38
749.96	56.47
750.16	55.74
750.35	55.70
750.54	58.98
750.73	59.26
750.92	63.93
751.11	62.63
751.30	62.18
751.49	61.83
751.68	58.01
751.88	59.17
752.07	59.28
752.26	61.68
752.45	59.47
752.64	54.48
752.83	53.49
753.02	48.44
753.21	47.21
753.40	48.13
753.60	50.29
753.79	50.57
753.98	48.20
754.17	49.00
754.36	48.39
754.55	49.17
754.74	50.77
754.93	52.02
755.12	54.01
755.31	54.42
755.50	54.89
755.70	56.43
755.89	62.30
756.08	63.28
756.27	60.64
756.46	60.79
756.65	61.38
756.84	62.18
757.03	59.78
757.22	59.88
757.41	60.01
757.60	62.03
757.79	58.68
757.98	56.54
758.17	58.70
758.36	58.83
758.56	56.41
758.75	54.33
758.94	53.17
759.13	53.69
759.32	52.60
759.51	53.14
759.70	48.16
759.89	48.59
760.08	48.65
760.27	45.89
760.46	47.68
760.65	46.69
760.84	51.18
761.03	50.03
761.22	53.49
761.41	52.33
761.60	51.94
761.79	55.98
761.98	58.24
762.17	58.89
762.36	60.99
762.55	59.26
762.74	60.40
762.93	58.37
763.12	60.94
763.31	58.18
763.50	61.55
763.69	61.72
763.88	60.34
764.07	60.34
764.26	55.30
764.45	52.71
764.64	52.97
764.83	52.37
765.02	51.53
765.21	51.31
765.40	49.84
765.59	48.54
765.78	48.28
765.97	47.74
766.16	41.96
766.35	43.45
766.54	45.67
766.73	42.65
766.92	44.74
767.11	46.58
767.30	45.07
767.49	43.58
767.68	43.70
767.87	45.32
768.06	46.81
768.25	49.64
768.44	51.24
768.63	52.19
768.82	55.28
769.01	57.75
769.20	58.44
769.39	59.39
769.58	58.09
769.77	57.86
769.96	56.30
770.15	54.36
770.34	55.00
770.53	54.27
770.72	52.56
770.91	50.77
771.10	46.45
771.29	41.98
771.47	40.64
771.66	44.59
771.85	44.83
772.04	43.40
772.23	44.25
772.42	43.70
772.61	44.91
772.80	41.56
772.99	42.08
773.18	41.26
773.37	42.88
773.56	40.38
773.75	41.07
773.94	39.84
774.13	41.50
774.31	41.98
774.50	41.42
774.69	39.92
774.88	45.32
775.07	47.77
775.26	49.86
775.45	52.65
775.64	55.70
775.83	55.30
776.02	55.43
776.21	56.28
776.40	55.05
776.58	56.00
776.77	58.05
776.96	57.72
777.15	57.21
777.34	52.52
777.53	48.78
777.72	47.36
777.91	46.00
778.10	44.91
778.28	40.87
778.47	40.05
778.66	38.69
778.85	36.45
779.04	31.84
779.23	29.77
779.42	32.02
779.61	31.37
779.79	32.82
779.98	34.26
780.17	32.62
780.36	33.85
780.55	36.44
780.74	36.32
780.93	35.23
781.12	39.47
781.30	40.83
781.49	42.26
781.68	44.48
781.87	45.07
782.06	43.98
782.25	50.21
782.44	53.19
782.62	50.98
782.81	48.97
783.00	50.62
783.19	49.10
783.38	50.75
783.57	49.88
783.75	48.00
783.94	47.62
784.13	47.05
784.32	40.46
784.51	40.36
784.70	39.21
784.88	44.46
785.07	43.17
785.26	41.52
785.45	36.57
785.64	37.31
785.83	36.34
786.01	37.37
786.20	38.41
786.39	40.16
786.58	38.69
786.77	39.06
786.95	34.26
787.14	35.30
787.33	36.06
787.52	36.08
787.71	35.91
787.90	38.52
788.08	38.05
788.27	34.57
788.46	33.14
788.65	32.02
788.84	29.92
789.02	30.24
789.21	30.66
789.40	30.24
789.59	32.32
789.77	32.51
789.96	32.32
790.15	27.46
790.34	29.88
790.53	29.86
790.71	28.95
790.90	33.40
791.09	37.55
791.28	34.33
791.46	34.16
791.65	33.14
791.84	32.51
792.03	30.22
792.22	35.15
792.40	33.40
792.59	34.48
792.78	36.36
792.97	37.52
793.15	33.59
793.34	36.06
793.53	34.76
793.72	37.70
793.90	35.95
794.09	37.94
794.28	36.34
794.47	34.57
794.65	34.07
794.84	34.33
795.03	33.05
795.22	34.69
795.40	35.45
795.59	36.16
795.78	36.19
795.97	37.37
796.15	36.73
796.34	34.52
796.53	37.24
796.71	36.12
796.90	35.67
797.09	32.94
797.28	29.12
797.46	29.53
797.65	30.76
797.84	28.97
798.02	27.96
798.21	29.86
798.40	30.33
798.59	28.93
798.77	31.30
798.96	31.13
799.15	31.00
799.33	33.18
799.52	31.86
799.71	30.03
799.90	28.99
800.08	29.70
800.27	27.96
800.46	28.91
800.64	31.02
800.83	31.17
801.02	34.98
801.20	37.44
801.39	37.38
801.58	40.66
801.76	42.63
801.95	42.10
802.14	43.66
802.32	43.49
802.51	44.11
802.70	40.77
802.88	40.05
803.07	36.84
803.26	34.37
803.44	34.31
803.63	30.31
803.82	28.50
804.00	30.18
804.19	28.11
804.38	31.30
804.56	27.50
804.75	32.08
804.94	31.22
805.12	30.27
805.31	34.24
805.50	34.76
805.68	33.29
805.87	38.52
806.06	36.73
806.24	38.73
806.43	35.47
806.62	40.83
806.80	37.50
806.99	40.49
807.17	40.74
807.36	38.20
807.55	37.03
807.73	40.36
807.92	38.93
808.11	41.61
808.29	38.95
808.48	37.03
808.66	37.91
808.85	39.34
809.04	37.68
809.22	37.24
809.41	37.11
809.59	39.21
809.78	36.21
809.97	31.87
810.15	30.38
810.34	30.83
810.53	30.70
810.71	29.06
810.90	28.30
811.08	26.96
811.27	22.23
811.45	23.87
811.64	22.01
811.83	24.22
812.01	24.41
812.20	24.58
812.38	26.44
812.57	30.12
812.76	29.16
812.94	29.79
813.13	28.91
813.31	32.58
813.50	30.91
813.68	31.22
813.87	32.47
814.06	33.68
814.24	32.32
814.43	33.72
814.61	34.50
814.80	36.27
814.98	34.03
815.17	38.05
815.36	38.26
815.54	36.94
815.73	36.44
815.91	32.79
816.10	32.99
816.28	32.15
816.47	30.18
816.65	28.71
816.84	27.44
817.03	27.20
817.21	22.55
817.40	23.05
817.58	22.51
817.77	19.59
817.95	19.85
818.14	20.46
818.32	21.60
818.51	20.44
818.69	20.24
818.88	15.86
819.06	16.22
819.25	15.96
819.43	14.39
819.62	13.46
819.80	14.43
819.99	14.34
820.18	12.27
820.36	12.33
820.55	13.37
820.73	12.72
820.92	16.37
821.10	16.22
821.29	17.04
821.47	17.50
821.66	19.47
821.84	23.70
822.03	22.64
822.21	25.28
822.40	24.95
822.58	23.76
822.77	26.08
822.95	25.34
823.14	26.21
823.32	27.68
823.50	26.23
823.69	28.24
823.87	26.87
824.06	27.98
824.24	24.63
824.43	24.45
824.61	26.38
824.80	23.46
824.98	23.64
825.17	25.93
825.35	26.42
825.54	26.10
825.72	23.18
825.91	23.37
826.09	22.88
826.28	25.15
826.46	24.09
826.64	20.16
826.83	21.24
827.01	20.65
827.20	14.39
827.38	13.48
827.57	12.85
827.75	10.39
827.94	7.30
828.12	8.02
828.31	4.64
828.49	6.27
828.67	8.10
828.86	9.53
829.04	10.44
829.23	14.26
829.41	14.26
829.60	17.30
829.78	22.17
829.96	24.72
830.15	25.34
830.33	25.95
830.52	25.38
830.70	24.11
830.88	23.37
831.07	22.86
831.25	21.76
831.44	21.91
831.62	21.97
831.81	20.95
831.99	20.68
832.17	21.19
832.36	22.71
832.54	22.42
832.73	23.96
832.91	21.35
833.09	20.55
833.28	20.16
833.46	22.17
833.65	21.63
833.83	19.36
834.01	19.81
834.20	18.02
834.38	19.25
834.56	19.16
834.75	18.51
834.93	21.06
835.12	23.09
835.30	22.12
835.48	17.22
835.67	16.91
835.85	16.29
836.03	16.25
836.22	14.97
836.40	13.78
836.59	10.98
836.77	8.56
836.95	8.27
837.14	7.11
837.32	8.79
837.50	10.28
837.69	9.40
837.87	10.61
838.05	8.21
838.24	9.38
838.42	8.42
838.60	9.89
838.79	13.40
838.97	11.25
839.15	11.49
839.34	10.82
839.52	10.26
839.70	9.38
839.89	9.59
840.07	12.19
840.25	10.28
840.44	10.46
840.62	12.10
840.80	11.86
840.99	11.73
841.17	10.98
841.35	12.27
841.54	14.37
841.72	12.55
841.90	12.81
842.09	11.64
842.27	14.71
842.45	18.13
842.64	19.20
842.82	16.89
843.00	16.14
843.19	14.60
843.37	15.55
843.55	12.42
843.73	12.96
843.92	11.45
844.10	11.52
844.28	8.97
844.47	5.49
844.65	1.58
844.83	5.83
845.01	7.80
845.20	8.75
845.38	5.27
845.56	6.35
845.75	9.20
845.93	9.09
846.11	7.95
846.29	8.23
846.48	10.43
846.66	13.70
846.84	10.76
847.02	8.45
847.21	6.83
847.39	9.87
847.57	11.32
847.76	12.40
847.94	12.92
848.12	13.31
848.30	14.06
848.49	14.43
848.67	16.77
848.85	14.67
849.03	15.96
849.22	18.49
849.40	15.43
849.58	12.94
849.76	11.86
849.95	11.58
850.13	12.01
850.31	15.32
850.49	17.28
850.67	12.94
850.86	15.94
851.04	15.81
851.22	15.15
851.40	18.41
851.59	23.37
851.77	23.31
851.95	24.28
852.13	23.38
852.31	21.50
852.50	18.77
852.68	18.97
852.86	18.62
853.04	16.63
853.23	13.52
853.41	12.92
853.59	11.71
853.77	9.77
853.95	7.65
854.14	7.30
854.32	6.76
854.50	5.49
854.68	7.73
854.86	7.39
855.04	8.90
855.23	12.40
855.41	12.31
855.59	9.18
855.77	12.06
855.95	14.24
856.14	17.35
856.32	17.54
856.50	18.13
856.68	15.96
856.86	17.59
857.04	16.94
857.23	15.99
857.41	16.74
857.59	16.07
857.77	16.35
857.95	15.25
858.13	12.42
858.32	12.94
858.50	12.36
858.68	11.62
858.86	9.33
859.04	9.51
859.22	9.61
859.41	10.71
859.59	13.50
859.77	10.17
859.95	11.95
860.13	14.28
860.31	12.75
860.49	12.06
860.68	13.01
860.86	13.63
861.04	15.19
861.22	14.37
861.40	12.34
861.58	12.75
861.76	15.49
861.94	15.36
862.13	14.56
862.31	14.97
862.49	17.00
862.67	17.59
862.85	16.61
863.03	13.11
863.21	11.84
863.39	10.59
863.57	6.11
863.76	3.93
863.94	5.10
864.12	4.58
864.30	6.59
864.48	4.67
864.66	4.71
864.84	5.12
865.02	4.71
865.20	4.19
865.38	4.34
865.57	6.48
865.75	7.78
865.93	4.58
866.11	3.17
866.29	1.77
866.47	2.42
866.65	3.76
866.83	4.24
867.01	4.90
867.19	8.73
867.37	7.63
867.55	6.94
867.73	6.20
867.92	7.21
868.10	8.21
868.28	8.40
868.46	9.16
868.64	7.35
868.82	6.55
869.00	6.50
869.18	5.81
869.36	5.64
869.54	8.17
869.72	11.08
869.90	10.04
870.08	10.71
870.26	11.51
870.44	9.03
870.62	10.22
870.80	11.75
870.98	14.09
871.16	12.57
871.34	15.47
871.53	13.55
871.71	10.05
871.89	10.74
872.07	10.52
872.25	8.45
872.43	7.00
872.61	6.96
872.79	8.42
872.97	8.43
873.15	8.06
873.33	7.50
873.51	7.99
873.69	10.50
873.87	13.05
874.05	13.57
874.23	12.33
874.41	14.91
874.59	15.15
874.77	10.91
874.95	7.67
875.13	10.33
875.31	9.59
875.49	10.26
875.67	9.38
875.85	6.85
876.03	8.69
876.21	11.67
876.39	11.56
876.57	11.92
876.75	12.57
876.93	15.86
877.11	15.51
877.29	15.84
877.47	16.12
877.65	14.24
877.82	14.63
878.00	10.87
878.18	11.28
878.36	10.80
878.54	7.76
878.72	6.89
878.90	8.10
879.08	7.82
879.26	5.92
879.44	5.32
879.62	7.58
879.80	7.07
879.98	9.55
880.16	9.77
880.34	11.28
880.52	11.49
880.70	11.88
880.88	11.45
881.06	12.42
881.24	12.27
881.42	12.55
881.59	9.16
881.77	10.24
881.95	7.71
882.13	3.17
882.31	4.13
882.49	4.62
882.67	8.97
882.85	6.59
883.03	6.27
883.21	6.72
883.39	8.73
883.57	10.43
883.75	11.34
883.92	10.67
884.10	13.81
884.28	13.09
884.46	12.59
884.64	8.12
884.82	9.77
885.00	12.83
885.18	13.94
885.36	11.10
885.54	12.21
885.71	11.82
885.89	15.04
886.07	17.18
886.25	21.00
886.43	21.71
886.61	19.88
886.79	19.10
886.97	13.83
887.15	12.79
887.32	14.50
887.50	13.01
887.68	12.44
887.86	10.17
888.04	7.69
888.22	3.85
888.40	2.57
888.57	4.06
888.75	4.47
888.93	5.46
889.11	6.57
889.29	4.92
889.47	8.77
889.65	6.01
889.82	5.12
890.00	3.22
890.18	2.36
890.36	4.97
890.54	7.15
890.72	5.92
890.90	8.34
891.07	7.04
891.25	7.45
891.43	3.95
891.61	6.55
891.79	10.35
891.97	11.92
892.14	10.04
892.32	7.84
892.50	8.73
892.68	10.18
892.86	4.49
893.03	7.30
893.21	6.07
893.39	3.20
893.57	1.86
893.75	-0.37
893.93	-1.06
894.10	2.90
894.28	5.53
894.46	5.70
894.64	5.85
894.82	8.86
894.99	6.31
895.17	6.18
895.35	9.14
895.53	10.72
895.71	9.51
895.88	9.83
896.06	7.93
896.24	6.93
896.42	6.07
896.59	6.81
896.77	9.07
896.95	10.09
897.13	8.10
897.31	7.11
897.48	7.39
897.66	9.40
897.84	8.99
898.02	7.58
898.19	3.97
898.37	2.05
898.55	1.62
898.73	1.12
898.91	-0.52
899.08	0.56
899.26	4.43
899.44	3.82
899.62	1.82
899.79	1.79
899.97	4.69
900.15	7.71
900.33	7.19
900.50	4.80
900.68	2.05
900.86	6.03
901.04	6.65
901.21	5.03
901.39	5.32
901.57	7.50
901.74	9.14
901.92	7.48
902.10	7.48
902.28	8.49
902.45	9.01
902.63	10.46
902.81	10.20
902.99	12.03
903.16	11.79
903.34	10.54
903.52	7.28
903.69	4.65
903.87	3.89
904.05	2.46
904.22	3.72
904.40	3.00
904.58	2.36
904.76	0.91
904.93	-0.20
905.11	-2.05
905.29	-0.04
905.46	1.92
905.64	3.63
905.82	2.83
905.99	3.07
906.17	3.18
906.35	7.78
906.53	8.32
906.70	6.65
906.88	7.61
907.06	7.84
907.23	6.37
907.41	6.48
907.59	7.91
907.76	8.49
907.94	9.10
908.12	9.31
908.29	7.61
908.47	6.05
908.65	4.90
908.82	4.30
909.00	2.70
909.18	3.44
909.35	2.42
909.53	-0.26
909.71	-1.51
909.88	-2.22
910.06	-3.50
910.23	-3.31
910.41	-2.81
910.59	-1.88
910.76	-0.32
910.94	4.43
911.12	3.89
911.29	3.59
911.47	2.81
911.65	4.60
911.82	3.95
912.00	3.61
912.17	3.76
912.35	3.78
912.53	4.52
912.70	2.51
912.88	-0.22
913.06	0.88
913.23	1.12
913.41	1.58
913.58	4.82
913.76	6.16
913.94	6.83
914.11	7.24
914.29	5.75
914.46	6.61
914.64	7.61
914.82	9.14
914.99	9.16
915.17	12.25
915.34	15.75
915.52	11.60
915.70	12.83
915.87	12.59
916.05	10.97
916.22	15.58
916.40	14.34
916.57	13.27
916.75	11.67
916.93	10.07
917.10	10.57
917.28	7.06
917.45	9.14
917.63	7.04
917.80	5.23
917.98	6.22
918.16	4.54
918.33	4.23
918.51	5.36
918.68	5.49
918.86	5.60
919.03	1.73
919.21	3.91
919.39	5.51
919.56	5.99
919.74	6.05
919.91	5.08
920.09	1.04
920.26	-0.02
920.44	-2.85
920.61	-4.32
920.79	-2.79
920.96	-2.63
921.14	-3.65
921.31	-7.52
921.49	-6.76
921.67	-4.32
921.84	-4.95
922.02	-0.26
922.19	2.90
922.37	4.71
922.54	4.30
922.72	2.49
922.89	4.23
923.07	3.87
923.24	6.81
923.42	5.68
923.59	4.97
923.77	8.55
923.94	4.43
924.12	2.09
924.29	3.70
924.47	4.97
924.64	7.61
924.82	8.86
924.99	10.46
925.17	9.03
925.34	10.05
925.52	10.18
925.69	7.17
925.87	7.11
926.04	8.84
926.22	9.16
926.39	10.63
926.57	9.46
926.74	7.21
926.91	6.24
927.09	4.92
927.26	7.35
927.44	5.18
927.61	3.31
927.79	7.24
927.96	7.80
928.14	5.27
928.31	7.06
928.49	6.46
928.66	9.42
928.84	8.45
929.01	8.30
929.18	2.64
929.36	5.99
929.53	8.14
929.71	4.99
929.88	3.44
930.06	5.31
930.23	0.89
930.41	-2.57
930.58	-3.78
930.75	-1.90
930.93	0.07
931.10	1.68
931.28	-4.11
931.45	-4.11
931.63	-3.43
931.80	-0.69
931.97	-2.35
932.15	-0.63
932.32	4.04
932.50	2.07
932.67	3.69
932.84	3.09
933.02	5.40
933.19	8.86
933.37	5.99
933.54	6.40
933.71	6.39
933.89	8.88
934.06	8.23
934.24	6.57
934.41	7.60
934.58	3.74
934.76	1.69
934.93	2.20
935.11	1.25
935.28	3.11
935.45	1.01
935.63	-0.99
935.80	-4.90
935.98	-3.46
936.15	-2.92
936.32	-4.47
936.50	-0.84
936.67	-0.06
936.84	0.37
937.02	-0.20
937.19	-0.63
937.36	2.29
937.54	-1.68
937.71	0.19
937.89	-1.62
938.06	-4.15
938.23	-5.70
938.41	-7.11
938.58	-5.14
938.75	-4.80
938.93	-0.06
939.10	0.50
939.27	0.69
939.45	5.59
939.62	7.43
939.79	7.24
939.97	6.78
940.14	7.26
940.31	5.38
940.49	2.55
940.66	0.65
940.83	-2.89
941.01	-1.97
941.18	-3.26
941.35	-3.00
941.53	-2.55
941.70	-0.34
941.87	4.49
942.05	5.79
942.22	7.30
942.39	8.97
942.57	8.82
942.74	10.44
942.91	8.73
943.08	8.62
943.26	8.51
943.43	7.19
943.60	7.22
943.78	5.05
943.95	5.18
944.12	4.69
944.29	5.98
944.47	7.86
944.64	5.79
944.81	5.73
944.99	7.02
945.16	3.15
945.33	-0.50
945.50	0.88
945.68	1.94
945.85	0.78
946.02	-1.71
946.20	-4.00
946.37	-5.83
946.54	-2.03
946.71	-1.92
946.89	-2.03
947.06	1.49
947.23	5.81
947.40	6.61
947.58	5.12
947.75	5.70
947.92	7.60
948.09	8.36
948.27	9.89
948.44	6.72
948.61	6.22
948.78	5.42
948.96	4.08
949.13	2.96
949.30	0.80
949.47	0.91
949.65	0.99
949.82	-0.24
949.99	1.41
950.16	-1.15
950.33	-4.47
950.51	-5.25
950.68	-3.72
950.85	-1.94
951.02	-2.33
951.20	-1.84
951.37	-0.71
951.54	-0.50
951.71	1.36
951.88	-0.91
952.06	-1.10
952.23	3.43
952.40	6.72
952.57	7.80
952.74	5.83
952.92	4.80
953.09	4.02
953.26	0.97
953.43	1.10
953.60	-1.12
953.77	2.01
953.95	5.59
954.12	4.93
954.29	3.37
954.46	1.41
954.63	1.30
954.81	3.09
954.98	1.19
955.15	2.18
955.32	2.07
955.49	2.98
955.66	0.07
955.84	-3.67
956.01	-3.82
956.18	-3.80
956.35	-3.72
956.52	-2.74
956.69	-5.36
956.87	-3.97
957.04	-2.42
957.21	-3.63
957.38	-1.47
957.55	1.32
957.72	4.34
957.89	4.88
958.07	5.03
958.24	1.10
958.41	-0.65
958.58	-0.35
958.75	-2.57
958.92	-4.77
959.09	-2.38
959.26	-2.76
959.44	-4.97
959.61	-5.25
959.78	-4.97
959.95	-4.23
960.12	-1.34
960.29	0.09
960.46	-0.58
960.63	1.53
960.81	1.27
960.98	0.93
961.15	-1.01
961.32	-1.23
961.49	-3.56
961.66	-2.59
961.83	-2.51
962.00	-3.69
962.17	-6.37
962.34	-4.28
962.52	-4.69
962.69	-3.95
962.86	-7.21
963.03	-5.60
963.20	-3.07
963.37	-0.82
963.54	-1.53
963.71	0.56
963.88	1.17
964.05	1.73
964.22	0.67
964.39	2.36
964.56	5.49
964.74	6.74
964.91	5.12
965.08	1.94
965.25	-0.04
965.42	-2.16
965.59	-6.63
965.76	-9.10
965.93	-5.34
966.10	-2.33
966.27	-5.03
966.44	-8.94
966.61	-4.92
966.78	-5.44
966.95	-5.10
967.12	-4.10
967.29	-2.05
967.46	-0.17
967.63	3.50
967.80	1.36
967.97	0.35
968.14	0.63
968.32	-0.54
968.49	-1.94
968.66	0.22
968.83	1.21
969.00	2.31
969.17	3.17
969.34	2.38
969.51	0.71
969.68	-0.11
969.85	-0.50
970.02	0.06
970.19	0.06
970.36	-0.35
970.53	-0.15
970.70	-0.95
970.87	-4.78
971.04	-5.72
971.21	-6.98
971.38	-4.67
971.55	-3.24
971.72	-1.82
971.89	-3.02
972.06	0.39
972.23	-1.32
972.40	-3.11
972.57	-1.94
972.74	-0.34
972.91	0.19
973.07	3.31
973.24	2.05
973.41	-0.65
973.58	-4.15
973.75	-2.46
973.92	-1.97
974.09	-0.99
974.26	1.15
974.43	0.78
974.60	3.57
974.77	2.74
974.94	2.35
975.11	4.30
975.28	5.44
975.45	6.11
975.62	7.06
975.79	6.29
975.96	6.48
976.13	5.59
976.30	4.21
976.47	1.79
976.64	1.62
976.80	-0.34
976.97	-3.57
977.14	-3.50
977.31	-0.11
977.48	-2.14
977.65	-0.78
977.82	0.04
977.99	1.17
978.16	2.55
978.33	3.89
978.50	3.95
978.67	5.88
978.83	6.65
979.00	6.87
979.17	5.83
979.34	8.19
979.51	5.92
979.68	7.00
979.85	6.01
980.02	4.54
980.19	3.30
980.36	2.10
980.52	-0.54
980.69	-3.11
980.86	-2.68
981.03	-4.58
981.20	-3.15
981.37	-1.68
981.54	-5.60
981.71	-7.58
981.88	-5.64
982.04	-4.86
982.21	-5.75
982.38	-4.19
982.55	-1.14
982.72	2.03
982.89	1.68
983.06	-0.20
983.22	-1.86
983.39	-0.78
983.56	1.40
983.73	-0.63
983.90	-0.34
984.07	2.66
984.24	2.27
984.40	4.32
984.57	2.72
984.74	4.51
984.91	2.03
985.08	3.91
985.25	4.28
985.41	3.63
985.58	6.40
985.75	7.26
985.92	9.05
986.09	5.99
986.26	5.08
986.42	2.81
986.59	0.63
986.76	4.58
986.93	3.85
987.10	6.11
987.27	4.02
987.43	2.14
987.60	0.74
987.77	-0.17
987.94	4.60
988.11	5.23
988.27	6.26
988.44	8.49
988.61	8.86
988.78	7.97
988.95	9.18
989.11	10.61
989.28	10.56
989.45	7.15
989.62	6.37
989.79	5.62
989.95	3.39
990.12	0.43
990.29	2.59
990.46	2.29
990.62	6.18
990.79	3.85
990.96	4.21
991.13	3.46
991.30	6.37
991.46	2.53
991.63	3.03
991.80	1.55
991.97	1.82
992.13	1.53
992.30	1.36
992.47	1.12
992.64	-1.04
992.80	0.82
992.97	1.36
993.14	3.48
993.31	8.02
993.47	6.13
993.64	9.64
993.81	14.84
993.98	9.59
994.14	7.61
994.31	1.88
994.48	1.02
994.64	0.24
994.81	0.73
994.98	-0.88
995.15	1.90
995.31	4.65
995.48	4.19
995.65	2.77
995.82	4.86
995.98	3.65
996.15	6.40
996.32	7.86
996.48	7.76
996.65	8.19
996.82	9.07
996.99	5.29
997.15	4.56
997.32	6.07
997.49	4.19
997.65	3.28
997.82	6.09
997.99	6.11
998.15	8.64
998.32	9.98
998.49	11.75
998.65	13.03
998.82	11.32
998.99	8.60
999.15	5.32
999.32	5.38
999.49	5.12
999.65	1.69
999.82	-1.92
999.99	-3.67
1000.15	-5.18
1000.32	-7.26
1000.49	-9.05
1000.65	-8.32
1000.82	-5.90
1000.99	-5.94
1001.15	-5.92
1001.32	-3.46
1001.49	-2.83
1001.65	0.20
1001.82	0.24
1001.99	0.73
1002.15	3.05
1002.32	3.56
1002.49	4.62
1002.65	2.83
1002.82	5.32
1002.99	4.34
1003.15	3.70
1003.32	3.57
1003.48	3.80
1003.65	2.59
1003.82	1.32
1003.98	-0.43
1004.15	-2.23
1004.32	-0.91
1004.48	1.82
1004.65	2.18
1004.81	4.65
1004.98	2.25
1005.15	3.82
1005.31	3.56
1005.48	6.01
1005.64	5.36
1005.81	5.10
1005.98	4.92
1006.14	1.15
1006.31	0.26
1006.47	-1.75
1006.64	-1.95
1006.81	0.13
1006.97	0.52
1007.14	0.50
1007.30	0.63
1007.47	2.27
1007.63	0.09
1007.80	-0.86
1007.97	2.27
1008.13	0.28
1008.30	-0.54
1008.46	-0.95
1008.63	-0.13
1008.79	1.41
1008.96	1.14
1009.13	-1.19
1009.29	-2.83
1009.46	-0.61
1009.62	1.15
1009.79	-1.77
1009.95	1.10
1010.12	3.74
1010.28	3.48
1010.45	0.22
1010.62	-3.07
1010.78	-1.01
1010.95	0.89
1011.11	3.61
1011.28	4.80
1011.44	2.38
1011.61	5.53
1011.77	3.57
1011.94	1.12
1012.10	3.30
1012.27	4.99
1012.43	5.68
1012.60	6.37
1012.76	5.31
1012.93	3.57
1013.10	4.39
1013.26	8.94
1013.43	7.60
1013.59	8.56
1013.76	11.21
1013.92	9.10
1014.09	8.32
1014.25	7.13
1014.42	4.78
1014.58	5.90
1014.75	3.46
1014.91	-2.10
1015.08	-3.57
1015.24	-3.48
1015.41	-4.19
1015.57	-5.21
1015.73	-4.77
1015.90	-3.46
1016.06	-3.74
1016.23	-3.22
1016.39	-3.17
1016.56	-1.23
1016.72	-0.91
1016.89	-1.36
1017.05	0.00
1017.22	0.69
1017.38	2.74
1017.55	2.36
1017.71	3.33
1017.88	5.47
1018.04	4.51
1018.21	4.13
1018.37	6.03
1018.53	8.69
1018.70	9.14
1018.86	8.10
1019.03	7.75
1019.19	5.29
1019.36	6.85
1019.52	5.53
1019.69	5.32
1019.85	6.31
1020.01	3.85
1020.18	3.03
1020.34	4.34
1020.51	1.66
1020.67	-1.45
1020.84	0.02
1021.00	-0.99
1021.16	-2.90
1021.33	-2.92
1021.49	-3.41
1021.66	-3.91
1021.82	-3.91
1021.98	-5.47
1022.15	-3.61
1022.31	-1.86
1022.48	-3.05
1022.64	-5.68
1022.80	-4.11
1022.97	-3.89
1023.13	0.22
1023.30	1.40
1023.46	2.61
1023.62	4.15
1023.79	4.77
1023.95	2.83
1024.12	3.37
1024.28	8.27
1024.44	12.03
1024.61	10.02
1024.77	9.51
1024.93	4.56
1025.10	4.08
1025.26	3.70
1025.43	5.16
1025.59	5.32
1025.75	3.97
1025.92	4.65
1026.08	3.95
1026.24	3.18
1026.41	5.59
1026.57	6.26
1026.73	7.67
1026.90	8.30
1027.06	6.26
1027.23	1.81
1027.39	1.55
1027.55	-1.51
1027.72	-0.20
1027.88	2.63
1028.04	-0.69
1028.21	0.26
1028.37	-1.01
1028.53	-0.19
1028.70	-1.77
1028.86	-2.27
1029.02	0.13
1029.19	-0.09
1029.35	5.64
1029.51	3.91
1029.67	1.81
1029.84	3.52
1030.00	0.41
1030.16	-0.82
1030.33	-3.44
1030.49	-4.60
1030.65	-2.89
1030.82	-1.99
1030.98	-2.07
1031.14	-4.71
1031.31	-5.08
1031.47	-4.15
1031.63	-4.28
1031.79	-2.72
1031.96	0.88
1032.12	3.37
1032.28	7.22
1032.45	8.71
1032.61	8.73
1032.77	7.37
1032.93	9.31
1033.10	8.40
1033.26	4.06
1033.42	3.00
1033.58	4.28
1033.75	2.22
1033.91	-1.21
1034.07	-3.65
1034.24	-5.42
1034.40	-6.07
1034.56	-3.05
1034.72	-3.84
1034.89	-3.95
1035.05	-0.32
1035.21	0.97
1035.37	-0.45
1035.54	0.37
1035.70	0.56
1035.86	0.78
1036.02	1.79
1036.19	4.82
1036.35	5.47
1036.51	3.05
1036.67	5.55
1036.83	3.89
1037.00	2.35
1037.16	3.76
1037.32	2.10
1037.48	4.38
1037.65	2.70
1037.81	2.25
1037.97	1.88
1038.13	0.69
1038.29	4.34
1038.46	2.77
1038.62	3.33
1038.78	4.02
1038.94	3.48
1039.10	5.70
1039.27	6.40
1039.43	7.26
1039.59	5.75
1039.75	3.22
1039.91	3.74
1040.08	1.71
1040.24	-0.47
1040.40	-1.45
1040.56	-1.32
1040.72	-0.93
1040.89	-0.58
1041.05	-0.47
1041.21	1.27
1041.37	1.99
1041.53	1.88
1041.69	1.71
1041.86	-1.41
1042.02	-1.97
1042.18	0.00
1042.34	1.45
1042.50	2.09
1042.66	0.17
1042.83	-0.56
1042.99	-2.07
1043.15	-3.03
1043.31	-1.04
1043.47	-3.59
1043.63	-0.71
1043.79	0.37
1043.96	-2.87
1044.12	-4.38
1044.28	-4.77
1044.44	-4.80
1044.60	-6.81
1044.76	-7.54
1044.92	-6.52
1045.09	-7.71
1045.25	-4.60
1045.41	-2.48
1045.57	-2.07
1045.73	-2.23
1045.89	-1.04
1046.05	-2.77
1046.21	23.76
1046.38	-11.88
1046.54	-21.91
1046.70	11.26
1046.86	2.66
>>>>>End Processed Spectral Data<<<<<
